#BD092860                                                    
#                                                            
#  Heap-Lindler STIS                                         
# wavelength  ABmag  band
   2950.00   13.608  2.74
   2952.74   13.530  2.74
   2955.48   13.490  2.74
   2958.22   13.465  2.74
   2960.96   13.472  2.74
   2963.70   13.480  2.74
   2966.44   13.647  2.74
   2969.18   13.601  2.74
   2971.92   13.553  2.74
   2974.66   13.424  2.74
   2977.40   13.424  2.74
   2980.14   13.496  2.74
   2982.88   13.576  2.74
   2985.62   13.660  2.74
   2988.36   13.493  2.74
   2991.10   13.364  2.74
   2993.84   13.357  2.74
   2996.58   13.338  2.74
   2999.32   13.405  2.74
   3002.06   13.503  2.74
   3004.80   13.407  2.74
   3007.54   13.391  2.74
   3010.28   13.346  2.74
   3013.02   13.368  2.74
   3015.76   13.418  2.74
   3018.50   13.495  2.74
   3021.24   13.540  2.74
   3023.98   13.349  2.74
   3026.72   13.345  2.74
   3029.46   13.374  2.74
   3032.20   13.351  2.74
   3034.94   13.258  2.74
   3037.68   13.307  2.74
   3040.42   13.316  2.74
   3043.16   13.295  2.74
   3045.90   13.246  2.74
   3048.64   13.287  2.74
   3051.38   13.184  2.74
   3054.12   13.251  2.74
   3056.86   13.348  2.74
   3059.60   13.395  2.74
   3062.34   13.367  2.74
   3065.08   13.486  2.74
   3067.82   13.430  2.74
   3070.56   13.376  2.74
   3073.30   13.298  2.74
   3076.04   13.320  2.74
   3078.78   13.319  2.74
   3081.52   13.278  2.74
   3084.26   13.259  2.74
   3087.00   13.286  2.74
   3089.74   13.404  2.74
   3092.48   13.437  2.74
   3095.22   13.445  2.74
   3097.96   13.468  2.74
   3100.70   13.495  2.74
   3103.44   13.326  2.74
   3106.18   13.132  2.74
   3108.92   13.155  2.74
   3111.66   13.215  2.74
   3114.40   13.207  2.74
   3117.14   13.242  2.74
   3119.88   13.247  2.74
   3122.62   13.418  2.74
   3125.36   13.377  2.74
   3128.10   13.258  2.74
   3130.84   13.267  2.74
   3133.58   13.193  2.74
   3136.32   13.153  2.74
   3139.06   13.210  2.74
   3141.80   13.359  2.74
   3144.54   13.318  2.74
   3147.28   13.221  2.74
   3150.02   13.134  2.74
   3152.76   13.092  2.74
   3155.50   13.138  2.74
   3158.24   13.272  2.74
   3160.98   13.303  2.74
   3163.72   13.184  2.74
   3166.46   13.166  2.74
   3169.20   13.098  2.74
   3171.94   13.026  2.74
   3174.68   13.005  2.74
   3177.42   13.085  2.74
   3180.16   13.213  2.74
   3182.90   13.243  2.74
   3185.64   13.272  2.74
   3188.38   13.128  2.74
   3191.12   13.195  2.74
   3193.86   13.199  2.74
   3196.60   13.073  2.74
   3199.34   12.997  2.74
   3202.08   13.036  2.74
   3204.82   12.936  2.74
   3207.56   12.940  2.74
   3210.30   13.097  2.74
   3213.04   13.152  2.74
   3215.78   13.045  2.74
   3218.52   13.022  2.74
   3221.26   13.034  2.74
   3224.00   13.061  2.74
   3226.74   13.081  2.74
   3229.48   13.157  2.74
   3232.22   13.175  2.74
   3234.96   13.158  2.74
   3237.70   13.105  2.74
   3240.44   12.970  2.74
   3243.18   12.928  2.74
   3245.92   12.929  2.74
   3248.66   12.987  2.74
   3251.40   12.970  2.74
   3254.14   12.946  2.74
   3256.88   12.821  2.74
   3259.62   12.869  2.74
   3262.36   12.871  2.74
   3265.10   12.859  2.74
   3267.84   12.843  2.74
   3270.58   12.883  2.74
   3273.32   12.870  2.74
   3276.06   12.886  2.74
   3278.80   12.949  2.74
   3281.54   12.864  2.74
   3284.28   12.884  2.74
   3287.02   12.858  2.74
   3289.76   12.836  2.74
   3292.50   12.798  2.74
   3295.24   12.697  2.74
   3297.98   12.732  2.74
   3300.72   12.782  2.74
   3303.46   12.834  2.74
   3306.20   12.822  2.74
   3308.94   12.836  2.74
   3311.68   12.787  2.74
   3314.42   12.749  2.74
   3317.16   12.835  2.74
   3319.90   12.841  2.74
   3322.64   12.857  2.74
   3325.38   12.883  2.74
   3328.12   12.844  2.74
   3330.86   12.809  2.74
   3333.60   12.814  2.74
   3336.34   12.844  2.74
   3339.08   12.892  2.74
   3341.82   12.883  2.74
   3344.56   12.784  2.74
   3347.30   12.788  2.74
   3350.04   12.868  2.74
   3352.78   12.836  2.74
   3355.52   12.790  2.74
   3358.26   12.868  2.74
   3361.00   13.098  2.74
   3363.74   12.928  2.74
   3366.48   12.797  2.74
   3369.22   12.929  2.74
   3371.96   12.935  2.74
   3374.70   12.814  2.74
   3377.44   12.784  2.74
   3380.18   12.836  2.74
   3382.92   12.837  2.74
   3385.66   12.756  2.74
   3388.40   12.739  2.74
   3391.14   12.758  2.74
   3393.88   12.743  2.74
   3396.62   12.653  2.74
   3399.36   12.604  2.74
   3402.10   12.623  2.74
   3404.84   12.745  2.74
   3407.58   12.713  2.74
   3410.32   12.737  2.74
   3413.06   12.728  2.74
   3415.80   12.716  2.74
   3418.54   12.622  2.74
   3421.28   12.657  2.74
   3424.02   12.650  2.74
   3426.76   12.590  2.74
   3429.50   12.547  2.74
   3432.24   12.544  2.74
   3434.98   12.616  2.74
   3437.72   12.600  2.74
   3440.46   12.672  2.74
   3443.20   12.756  2.74
   3445.94   12.689  2.74
   3448.68   12.587  2.74
   3451.42   12.600  2.74
   3454.16   12.677  2.74
   3456.90   12.589  2.74
   3459.64   12.625  2.74
   3462.38   12.622  2.74
   3465.12   12.607  2.74
   3467.86   12.573  2.74
   3470.60   12.535  2.74
   3473.34   12.637  2.74
   3476.08   12.671  2.74
   3478.82   12.623  2.74
   3481.56   12.573  2.74
   3484.30   12.582  2.74
   3487.04   12.566  2.74
   3489.78   12.551  2.74
   3492.52   12.612  2.74
   3495.26   12.658  2.74
   3498.00   12.616  2.74
   3500.74   12.518  2.74
   3503.48   12.551  2.74
   3506.22   12.559  2.74
   3508.96   12.577  2.74
   3511.70   12.562  2.74
   3514.44   12.604  2.74
   3517.18   12.559  2.74
   3519.92   12.538  2.74
   3522.66   12.592  2.74
   3525.40   12.590  2.74
   3528.14   12.593  2.74
   3530.88   12.512  2.74
   3533.62   12.507  2.74
   3536.36   12.437  2.74
   3539.10   12.455  2.74
   3541.84   12.444  2.74
   3544.58   12.468  2.74
   3547.32   12.509  2.74
   3550.06   12.444  2.74
   3552.80   12.434  2.74
   3555.54   12.422  2.74
   3558.28   12.410  2.74
   3561.02   12.457  2.74
   3563.76   12.449  2.74
   3566.50   12.555  2.74
   3569.24   12.528  2.74
   3571.98   12.558  2.74
   3574.72   12.537  2.74
   3577.46   12.490  2.74
   3580.20   12.488  2.74
   3582.94   12.546  2.74
   3585.68   12.586  2.74
   3588.42   12.603  2.74
   3591.16   12.516  2.74
   3593.90   12.506  2.74
   3596.64   12.408  2.74
   3599.38   12.420  2.74
   3602.12   12.467  2.74
   3604.86   12.453  2.74
   3607.60   12.492  2.74
   3610.34   12.475  2.74
   3613.08   12.473  2.74
   3615.82   12.410  2.74
   3618.56   12.440  2.74
   3621.30   12.415  2.74
   3624.04   12.404  2.74
   3626.78   12.383  2.74
   3629.52   12.360  2.74
   3632.26   12.428  2.74
   3635.00   12.417  2.74
   3637.74   12.374  2.74
   3640.48   12.349  2.74
   3643.22   12.398  2.74
   3645.96   12.400  2.74
   3648.70   12.377  2.74
   3651.44   12.387  2.74
   3654.18   12.346  2.74
   3656.92   12.300  2.74
   3659.66   12.327  2.74
   3662.40   12.343  2.74
   3665.14   12.289  2.74
   3667.88   12.257  2.74
   3670.62   12.361  2.74
   3673.36   12.271  2.74
   3676.10   12.277  2.74
   3678.84   12.328  2.74
   3681.58   12.331  2.74
   3684.32   12.305  2.74
   3687.06   12.300  2.74
   3689.80   12.266  2.74
   3692.54   12.204  2.74
   3695.28   12.189  2.74
   3698.02   12.163  2.74
   3700.76   12.126  2.74
   3703.50   12.246  2.74
   3706.24   12.304  2.74
   3708.98   12.226  2.74
   3711.72   12.213  2.74
   3714.46   12.138  2.74
   3717.20   12.122  2.74
   3719.94   12.140  2.74
   3722.68   12.281  2.74
   3725.42   12.113  2.74
   3728.16   12.075  2.74
   3730.90   12.087  2.74
   3733.64   12.245  2.74
   3736.38   12.266  2.74
   3739.12   12.128  2.74
   3741.86   12.057  2.74
   3744.60   12.090  2.74
   3747.34   12.186  2.74
   3750.08   12.325  2.74
   3752.82   12.123  2.74
   3755.56   11.951  2.74
   3758.30   12.053  2.74
   3761.04   12.042  2.74
   3763.78   12.011  2.74
   3766.52   12.032  2.74
   3769.26   12.061  2.74
   3772.00   12.105  2.74
   3774.74   12.014  2.74
   3777.48   11.931  2.74
   3780.22   11.864  2.74
   3782.96   11.860  2.74
   3785.70   11.909  2.74
   3788.44   12.003  2.74
   3791.18   11.919  2.74
   3793.92   11.990  2.74
   3796.66   12.126  2.74
   3799.40   12.114  2.74
   3802.14   11.943  2.74
   3804.88   11.872  2.74
   3807.62   11.889  2.74
   3810.36   11.832  2.74
   3813.10   11.883  2.74
   3815.84   11.932  2.74
   3818.58   11.882  2.74
   3821.32   11.882  2.74
   3824.06   11.890  2.74
   3826.80   11.960  2.74
   3829.54   11.988  2.74
   3832.28   12.078  2.74
   3835.02   12.203  2.74
   3837.76   12.110  2.74
   3840.50   12.000  2.74
   3843.24   11.884  2.74
   3845.98   11.846  2.74
   3848.72   11.809  2.74
   3851.46   11.825  2.74
   3854.20   11.807  2.74
   3856.94   11.811  2.74
   3859.68   11.850  2.74
   3862.42   11.795  2.74
   3865.16   11.792  2.74
   3867.90   11.756  2.74
   3870.64   11.796  2.74
   3873.38   11.863  2.74
   3876.12   11.813  2.74
   3878.86   11.860  2.74
   3881.60   11.815  2.74
   3884.34   11.893  2.74
   3887.08   12.006  2.74
   3889.82   12.049  2.74
   3892.56   11.934  2.74
   3895.30   11.898  2.74
   3898.04   11.855  2.74
   3900.78   11.834  2.74
   3903.52   11.853  2.74
   3906.26   11.849  2.74
   3909.00   11.796  2.74
   3911.74   11.750  2.74
   3914.48   11.796  2.74
   3917.22   11.826  2.74
   3919.96   11.872  2.74
   3922.70   11.856  2.74
   3925.44   11.910  2.74
   3928.18   12.112  2.74
   3930.92   12.602  2.74
   3933.66   13.125  2.74
   3936.40   12.727  2.74
   3939.14   12.162  2.74
   3941.88   11.935  2.74
   3944.62   11.862  2.74
   3947.36   11.816  2.74
   3950.10   11.815  2.74
   3952.84   11.809  2.74
   3955.58   11.786  2.74
   3958.32   11.785  2.74
   3961.06   11.857  2.74
   3963.80   12.036  2.74
   3966.54   12.470  2.74
   3969.28   12.843  2.74
   3972.02   12.348  2.74
   3974.76   11.939  2.74
   3977.50   11.799  2.74
   3980.24   11.726  2.74
   3982.98   11.724  2.74
   3985.72   11.693  2.74
   3988.46   11.652  2.74
   3991.20   11.647  2.74
   3993.94   11.643  2.74
   3996.68   11.679  2.74
   3999.42   11.694  2.74
   4002.16   11.644  2.74
   4004.90   11.642  2.74
   4007.64   11.659  2.74
   4010.38   11.642  2.74
   4013.12   11.624  2.74
   4015.86   11.599  2.74
   4018.60   11.586  2.74
   4021.34   11.608  2.74
   4024.08   11.601  2.74
   4026.82   11.607  2.74
   4029.56   11.627  2.74
   4032.30   11.645  2.74
   4035.04   11.634  2.74
   4037.78   11.591  2.74
   4040.52   11.565  2.74
   4043.26   11.607  2.74
   4046.00   11.638  2.74
   4048.74   11.575  2.74
   4051.48   11.563  2.74
   4054.22   11.591  2.74
   4056.96   11.584  2.74
   4059.70   11.546  2.74
   4062.44   11.597  2.74
   4065.18   11.607  2.74
   4067.92   11.570  2.74
   4070.66   11.574  2.74
   4073.40   11.579  2.74
   4076.14   11.601  2.74
   4078.88   11.622  2.74
   4081.62   11.568  2.74
   4084.36   11.566  2.74
   4087.10   11.567  2.74
   4089.84   11.568  2.74
   4092.58   11.550  2.74
   4095.32   11.586  2.74
   4098.06   11.674  2.74
   4100.80   11.793  2.74
   4103.54   11.771  2.74
   4106.28   11.649  2.74
   4109.02   11.585  2.74
   4111.76   11.550  2.74
   4114.50   11.530  2.74
   4117.24   11.523  2.74
   4119.98   11.556  2.74
   4122.72   11.550  2.74
   4125.46   11.538  2.74
   4128.20   11.547  2.74
   4130.94   11.559  2.74
   4133.68   11.574  2.74
   4136.42   11.517  2.74
   4139.16   11.495  2.74
   4141.90   11.525  2.74
   4144.64   11.549  2.74
   4147.38   11.522  2.74
   4150.12   11.534  2.74
   4152.86   11.554  2.74
   4155.60   11.541  2.74
   4158.34   11.513  2.74
   4161.08   11.507  2.74
   4163.82   11.499  2.74
   4166.56   11.495  2.74
   4169.30   11.499  2.74
   4172.04   11.548  2.74
   4174.78   11.559  2.74
   4177.52   11.551  2.74
   4180.26   11.513  2.74
   4183.00   11.517  2.74
   4185.74   11.519  2.74
   4188.48   11.528  2.74
   4191.22   11.507  2.74
   4193.96   11.485  2.74
   4196.70   11.510  2.74
   4199.44   11.538  2.74
   4202.18   11.539  2.74
   4204.92   11.513  2.74
   4207.66   11.513  2.74
   4210.40   11.486  2.74
   4213.14   11.487  2.74
   4215.88   11.523  2.74
   4218.62   11.518  2.74
   4221.36   11.486  2.74
   4224.10   11.510  2.74
   4226.84   11.557  2.74
   4229.58   11.487  2.74
   4232.32   11.484  2.74
   4235.06   11.506  2.74
   4237.80   11.493  2.74
   4240.54   11.467  2.74
   4243.28   11.480  2.74
   4246.02   11.505  2.74
   4248.76   11.513  2.74
   4251.50   11.471  2.74
   4254.24   11.462  2.74
   4256.98   11.466  2.74
   4259.72   11.484  2.74
   4262.46   11.456  2.74
   4265.20   11.423  2.74
   4267.94   11.447  2.74
   4270.68   11.496  2.74
   4273.42   11.484  2.74
   4276.16   11.448  2.74
   4278.90   11.438  2.74
   4281.64   11.473  2.74
   4284.38   11.484  2.74
   4287.12   11.502  2.74
   4289.86   11.545  2.74
   4292.60   11.520  2.74
   4295.34   11.519  2.74
   4298.08   11.565  2.74
   4300.82   11.612  2.74
   4303.56   11.595  2.74
   4306.30   11.570  2.74
   4309.04   11.568  2.74
   4311.78   11.548  2.74
   4314.52   11.497  2.74
   4317.26   11.444  2.74
   4320.00   11.441  2.74
   4322.74   11.464  2.74
   4325.48   11.482  2.74
   4328.22   11.427  2.74
   4330.96   11.433  2.74
   4333.70   11.461  2.74
   4336.44   11.522  2.74
   4339.18   11.670  2.74
   4341.92   11.642  2.74
   4344.66   11.494  2.74
   4347.40   11.415  2.74
   4350.14   11.428  2.74
   4352.88   11.459  2.74
   4355.62   11.410  2.74
   4358.36   11.385  2.74
   4361.10   11.363  2.74
   4363.84   11.345  2.74
   4366.58   11.386  2.74
   4369.32   11.365  2.74
   4372.06   11.391  2.74
   4374.80   11.420  2.74
   4377.54   11.379  2.74
   4380.28   11.371  2.74
   4383.02   11.423  2.74
   4385.76   11.416  2.74
   4388.50   11.390  2.74
   4391.24   11.392  2.74
   4393.98   11.398  2.74
   4396.72   11.398  2.74
   4399.46   11.402  2.74
   4402.20   11.389  2.74
   4404.94   11.370  2.74
   4407.68   11.382  2.74
   4410.42   11.364  2.74
   4413.16   11.360  2.74
   4415.90   11.385  2.74
   4418.64   11.390  2.74
   4421.38   11.364  2.74
   4424.12   11.344  2.74
   4426.86   11.354  2.74
   4429.60   11.354  2.74
   4432.34   11.333  2.74
   4435.08   11.353  2.74
   4437.82   11.340  2.74
   4440.56   11.346  2.74
   4443.30   11.384  2.74
   4446.04   11.368  2.74
   4448.78   11.342  2.74
   4451.52   11.341  2.74
   4454.26   11.368  2.74
   4457.00   11.371  2.74
   4459.74   11.344  2.74
   4462.48   11.350  2.74
   4465.22   11.359  2.74
   4467.96   11.362  2.74
   4470.70   11.333  2.74
   4473.44   11.308  2.74
   4476.18   11.315  2.74
   4478.92   11.326  2.74
   4481.66   11.327  2.74
   4484.40   11.315  2.74
   4487.14   11.308  2.74
   4489.88   11.320  2.74
   4492.62   11.322  2.74
   4495.36   11.315  2.74
   4498.10   11.313  2.74
   4500.84   11.303  2.74
   4503.58   11.287  2.74
   4506.32   11.270  2.74
   4509.06   11.284  2.74
   4511.80   11.302  2.74
   4514.54   11.299  2.74
   4517.28   11.300  2.74
   4520.02   11.305  2.74
   4522.76   11.314  2.74
   4525.50   11.284  2.74
   4528.24   11.315  2.74
   4530.98   11.357  2.74
   4533.72   11.333  2.74
   4536.46   11.301  2.74
   4539.20   11.272  2.74
   4541.94   11.275  2.74
   4544.68   11.298  2.74
   4547.42   11.329  2.74
   4550.16   11.339  2.74
   4552.90   11.331  2.74
   4555.64   11.310  2.74
   4558.38   11.283  2.74
   4561.12   11.278  2.74
   4563.86   11.295  2.74
   4566.60   11.271  2.74
   4569.34   11.267  2.74
   4572.08   11.282  2.74
   4574.82   11.256  2.74
   4577.56   11.252  2.74
   4580.30   11.274  2.74
   4583.04   11.282  2.74
   4585.78   11.270  2.74
   4588.52   11.267  2.74
   4591.26   11.272  2.74
   4594.00   11.254  2.74
   4596.74   11.248  2.74
   4599.48   11.259  2.74
   4602.22   11.251  2.74
   4604.96   11.240  2.74
   4607.70   11.238  2.74
   4610.44   11.249  2.74
   4613.18   11.245  2.74
   4615.92   11.253  2.74
   4618.66   11.251  2.74
   4621.40   11.235  2.74
   4624.14   11.234  2.74
   4626.88   11.223  2.74
   4629.62   11.226  2.74
   4632.36   11.236  2.74
   4635.10   11.233  2.74
   4637.84   11.236  2.74
   4640.58   11.232  2.74
   4643.32   11.217  2.74
   4646.06   11.228  2.74
   4648.80   11.227  2.74
   4651.54   11.225  2.74
   4654.28   11.238  2.74
   4657.02   11.215  2.74
   4659.76   11.212  2.74
   4662.50   11.225  2.74
   4665.24   11.215  2.74
   4667.98   11.221  2.74
   4670.72   11.214  2.74
   4673.46   11.199  2.74
   4676.20   11.198  2.74
   4678.94   11.211  2.74
   4681.68   11.207  2.74
   4684.42   11.204  2.74
   4687.16   11.210  2.74
   4689.90   11.196  2.74
   4692.64   11.182  2.74
   4695.38   11.194  2.74
   4698.12   11.210  2.74
   4700.86   11.205  2.74
   4703.60   11.209  2.74
   4706.34   11.204  2.74
   4709.08   11.210  2.74
   4711.82   11.212  2.74
   4714.56   11.189  2.74
   4717.30   11.169  2.74
   4720.04   11.168  2.74
   4722.78   11.180  2.74
   4725.52   11.186  2.74
   4728.26   11.190  2.74
   4731.00   11.187  2.74
   4733.74   11.192  2.74
   4736.48   11.189  2.74
   4739.22   11.167  2.74
   4741.96   11.170  2.74
   4744.70   11.169  2.74
   4747.44   11.165  2.74
   4750.18   11.164  2.74
   4752.92   11.164  2.74
   4755.66   11.177  2.74
   4758.40   11.173  2.74
   4761.14   11.183  2.74
   4763.88   11.205  2.74
   4766.62   11.184  2.74
   4769.36   11.170  2.74
   4772.10   11.163  2.74
   4774.84   11.166  2.74
   4777.58   11.161  2.74
   4780.32   11.155  2.74
   4783.06   11.171  2.74
   4785.80   11.172  2.74
   4788.54   11.168  2.74
   4791.28   11.162  2.74
   4794.02   11.150  2.74
   4796.76   11.149  2.74
   4799.50   11.162  2.74
   4802.24   11.154  2.74
   4804.98   11.151  2.74
   4807.72   11.156  2.74
   4810.46   11.155  2.74
   4813.20   11.149  2.74
   4815.94   11.146  2.74
   4818.68   11.156  2.74
   4821.42   11.147  2.74
   4824.16   11.151  2.74
   4826.90   11.143  2.74
   4829.64   11.130  2.74
   4832.38   11.133  2.74
   4835.12   11.144  2.74
   4837.86   11.144  2.74
   4840.60   11.147  2.74
   4843.34   11.147  2.74
   4846.08   11.139  2.74
   4848.82   11.147  2.74
   4851.56   11.144  2.74
   4854.30   11.188  2.74
   4857.04   11.242  2.74
   4859.78   11.352  2.74
   4862.52   11.377  2.74
   4865.26   11.242  2.74
   4868.00   11.194  2.74
   4870.74   11.194  2.74
   4873.48   11.181  2.74
   4876.22   11.151  2.74
   4878.96   11.147  2.74
   4881.70   11.145  2.74
   4884.44   11.143  2.74
   4887.18   11.149  2.74
   4889.92   11.157  2.74
   4892.66   11.141  2.74
   4895.40   11.120  2.74
   4898.14   11.134  2.74
   4900.88   11.121  2.74
   4903.62   11.115  2.74
   4906.36   11.108  2.74
   4909.10   11.120  2.74
   4911.84   11.101  2.74
   4914.58   11.113  2.74
   4917.32   11.125  2.74
   4920.06   11.147  2.74
   4922.80   11.158  2.74
   4925.54   11.121  2.74
   4928.28   11.117  2.74
   4931.02   11.121  2.74
   4933.76   11.131  2.74
   4936.50   11.126  2.74
   4939.24   11.120  2.74
   4941.98   11.098  2.74
   4944.72   11.092  2.74
   4947.46   11.100  2.74
   4950.20   11.102  2.74
   4952.94   11.105  2.74
   4955.68   11.121  2.74
   4958.42   11.140  2.74
   4961.16   11.099  2.74
   4963.90   11.098  2.74
   4966.64   11.115  2.74
   4969.38   11.104  2.74
   4972.12   11.105  2.74
   4974.86   11.112  2.74
   4977.60   11.091  2.74
   4980.34   11.104  2.74
   4983.08   11.120  2.74
   4985.82   11.098  2.74
   4988.56   11.090  2.74
   4991.30   11.110  2.74
   4994.04   11.104  2.74
   4996.78   11.110  2.74
   4999.52   11.107  2.74
   5002.26   11.117  2.74
   5005.00   11.127  2.74
   5007.74   11.122  2.74
   5010.48   11.117  2.74
   5013.22   11.123  2.74
   5015.96   11.095  2.74
   5018.70   11.111  2.74
   5021.44   11.094  2.74
   5024.18   11.087  2.74
   5026.92   11.084  2.74
   5029.66   11.069  2.74
   5032.40   11.066  2.74
