#CD-3018140                                                  
#                                                            
#  Heap-Lindler STIS                                         
# wavelength  ABmag  band
   2950.00   11.600  2.74
   2952.74   11.565  2.74
   2955.48   11.558  2.74
   2958.22   11.538  2.74
   2960.96   11.534  2.74
   2963.70   11.538  2.74
   2966.44   11.605  2.74
   2969.18   11.613  2.74
   2971.92   11.588  2.74
   2974.66   11.525  2.74
   2977.40   11.498  2.74
   2980.14   11.535  2.74
   2982.88   11.581  2.74
   2985.62   11.624  2.74
   2988.36   11.553  2.74
   2991.10   11.484  2.74
   2993.84   11.502  2.74
   2996.58   11.498  2.74
   2999.32   11.519  2.74
   3002.06   11.575  2.74
   3004.80   11.508  2.74
   3007.54   11.504  2.74
   3010.28   11.493  2.74
   3013.02   11.468  2.74
   3015.76   11.488  2.74
   3018.50   11.536  2.74
   3021.24   11.549  2.74
   3023.98   11.455  2.74
   3026.72   11.452  2.74
   3029.46   11.450  2.74
   3032.20   11.449  2.74
   3034.94   11.417  2.74
   3037.68   11.451  2.74
   3040.42   11.473  2.74
   3043.16   11.471  2.74
   3045.90   11.438  2.74
   3048.64   11.437  2.74
   3051.38   11.422  2.74
   3054.12   11.439  2.74
   3056.86   11.465  2.74
   3059.60   11.500  2.74
   3062.34   11.452  2.74
   3065.08   11.493  2.74
   3067.82   11.448  2.74
   3070.56   11.423  2.74
   3073.30   11.464  2.74
   3076.04   11.467  2.74
   3078.78   11.429  2.74
   3081.52   11.415  2.74
   3084.26   11.412  2.74
   3087.00   11.442  2.74
   3089.74   11.476  2.74
   3092.48   11.489  2.74
   3095.22   11.464  2.74
   3097.96   11.463  2.74
   3100.70   11.484  2.74
   3103.44   11.426  2.74
   3106.18   11.403  2.74
   3108.92   11.365  2.74
   3111.66   11.351  2.74
   3114.40   11.369  2.74
   3117.14   11.396  2.74
   3119.88   11.444  2.74
   3122.62   11.421  2.74
   3125.36   11.401  2.74
   3128.10   11.408  2.74
   3130.84   11.387  2.74
   3133.58   11.371  2.74
   3136.32   11.379  2.74
   3139.06   11.399  2.74
   3141.80   11.404  2.74
   3144.54   11.389  2.74
   3147.28   11.363  2.74
   3150.02   11.356  2.74
   3152.76   11.361  2.74
   3155.50   11.379  2.74
   3158.24   11.394  2.74
   3160.98   11.417  2.74
   3163.72   11.415  2.74
   3166.46   11.351  2.74
   3169.20   11.315  2.74
   3171.94   11.299  2.74
   3174.68   11.293  2.74
   3177.42   11.331  2.74
   3180.16   11.385  2.74
   3182.90   11.403  2.74
   3185.64   11.361  2.74
   3188.38   11.329  2.74
   3191.12   11.347  2.74
   3193.86   11.345  2.74
   3196.60   11.329  2.74
   3199.34   11.292  2.74
   3202.08   11.277  2.74
   3204.82   11.274  2.74
   3207.56   11.267  2.74
   3210.30   11.313  2.74
   3213.04   11.358  2.74
   3215.78   11.350  2.74
   3218.52   11.303  2.74
   3221.26   11.280  2.74
   3224.00   11.278  2.74
   3226.74   11.312  2.74
   3229.48   11.358  2.74
   3232.22   11.365  2.74
   3234.96   11.359  2.74
   3237.70   11.322  2.74
   3240.44   11.293  2.74
   3243.18   11.263  2.74
   3245.92   11.262  2.74
   3248.66   11.284  2.74
   3251.40   11.289  2.74
   3254.14   11.277  2.74
   3256.88   11.241  2.74
   3259.62   11.214  2.74
   3262.36   11.205  2.74
   3265.10   11.222  2.74
   3267.84   11.220  2.74
   3270.58   11.203  2.74
   3273.32   11.219  2.74
   3276.06   11.236  2.74
   3278.80   11.234  2.74
   3281.54   11.219  2.74
   3284.28   11.198  2.74
   3287.02   11.196  2.74
   3289.76   11.182  2.74
   3292.50   11.157  2.74
   3295.24   11.179  2.74
   3297.98   11.163  2.74
   3300.72   11.145  2.74
   3303.46   11.166  2.74
   3306.20   11.197  2.74
   3308.94   11.199  2.74
   3311.68   11.161  2.74
   3314.42   11.158  2.74
   3317.16   11.166  2.74
   3319.90   11.178  2.74
   3322.64   11.201  2.74
   3325.38   11.193  2.74
   3328.12   11.182  2.74
   3330.86   11.169  2.74
   3333.60   11.154  2.74
   3336.34   11.173  2.74
   3339.08   11.194  2.74
   3341.82   11.203  2.74
   3344.56   11.183  2.74
   3347.30   11.174  2.74
   3350.04   11.199  2.74
   3352.78   11.160  2.74
   3355.52   11.128  2.74
   3358.26   11.130  2.74
   3361.00   11.192  2.74
   3363.74   11.173  2.74
   3366.48   11.132  2.74
   3369.22   11.163  2.74
   3371.96   11.193  2.74
   3374.70   11.161  2.74
   3377.44   11.132  2.74
   3380.18   11.176  2.74
   3382.92   11.164  2.74
   3385.66   11.144  2.74
   3388.40   11.140  2.74
   3391.14   11.137  2.74
   3393.88   11.148  2.74
   3396.62   11.092  2.74
   3399.36   11.079  2.74
   3402.10   11.103  2.74
   3404.84   11.138  2.74
   3407.58   11.127  2.74
   3410.32   11.119  2.74
   3413.06   11.127  2.74
   3415.80   11.110  2.74
   3418.54   11.086  2.74
   3421.28   11.086  2.74
   3424.02   11.116  2.74
   3426.76   11.073  2.74
   3429.50   11.037  2.74
   3432.24   11.093  2.74
   3434.98   11.108  2.74
   3437.72   11.089  2.74
   3440.46   11.120  2.74
   3443.20   11.147  2.74
   3445.94   11.132  2.74
   3448.68   11.085  2.74
   3451.42   11.075  2.74
   3454.16   11.073  2.74
   3456.90   11.065  2.74
   3459.64   11.085  2.74
   3462.38   11.095  2.74
   3465.12   11.072  2.74
   3467.86   11.051  2.74
   3470.60   11.056  2.74
   3473.34   11.080  2.74
   3476.08   11.093  2.74
   3478.82   11.084  2.74
   3481.56   11.052  2.74
   3484.30   11.057  2.74
   3487.04   11.051  2.74
   3489.78   11.075  2.74
   3492.52   11.086  2.74
   3495.26   11.060  2.74
   3498.00   11.062  2.74
   3500.74   11.053  2.74
   3503.48   11.058  2.74
   3506.22   11.049  2.74
   3508.96   11.041  2.74
   3511.70   11.073  2.74
   3514.44   11.066  2.74
   3517.18   11.040  2.74
   3519.92   11.017  2.74
   3522.66   11.049  2.74
   3525.40   11.086  2.74
   3528.14   11.062  2.74
   3530.88   11.015  2.74
   3533.62   11.004  2.74
   3536.36   11.004  2.74
   3539.10   11.001  2.74
   3541.84   10.986  2.74
   3544.58   10.982  2.74
   3547.32   10.970  2.74
   3550.06   10.981  2.74
   3552.80   10.990  2.74
   3555.54   10.998  2.74
   3558.28   11.009  2.74
   3561.02   10.989  2.74
   3563.76   10.990  2.74
   3566.50   11.020  2.74
   3569.24   11.032  2.74
   3571.98   11.046  2.74
   3574.72   11.028  2.74
   3577.46   11.019  2.74
   3580.20   11.033  2.74
   3582.94   11.015  2.74
   3585.68   11.032  2.74
   3588.42   11.038  2.74
   3591.16   10.998  2.74
   3593.90   10.975  2.74
   3596.64   10.964  2.74
   3599.38   10.973  2.74
   3602.12   10.967  2.74
   3604.86   10.983  2.74
   3607.60   10.974  2.74
   3610.34   10.989  2.74
   3613.08   10.977  2.74
   3615.82   10.962  2.74
   3618.56   10.986  2.74
   3621.30   10.961  2.74
   3624.04   10.956  2.74
   3626.78   10.935  2.74
   3629.52   10.952  2.74
   3632.26   10.986  2.74
   3635.00   10.944  2.74
   3637.74   10.931  2.74
   3640.48   10.925  2.74
   3643.22   10.956  2.74
   3645.96   10.944  2.74
   3648.70   10.938  2.74
   3651.44   10.938  2.74
   3654.18   10.914  2.74
   3656.92   10.911  2.74
   3659.66   10.893  2.74
   3662.40   10.876  2.74
   3665.14   10.874  2.74
   3667.88   10.878  2.74
   3670.62   10.890  2.74
   3673.36   10.884  2.74
   3676.10   10.878  2.74
   3678.84   10.909  2.74
   3681.58   10.917  2.74
   3684.32   10.929  2.74
   3687.06   10.913  2.74
   3689.80   10.893  2.74
   3692.54   10.876  2.74
   3695.28   10.871  2.74
   3698.02   10.878  2.74
   3700.76   10.860  2.74
   3703.50   10.911  2.74
   3706.24   10.949  2.74
   3708.98   10.895  2.74
   3711.72   10.901  2.74
   3714.46   10.874  2.74
   3717.20   10.774  2.74
   3719.94   10.838  2.74
   3722.68   10.946  2.74
   3725.42   10.847  2.74
   3728.16   10.759  2.74
   3730.90   10.776  2.74
   3733.64   10.904  2.74
   3736.38   10.994  2.74
   3739.12   10.808  2.74
   3741.86   10.700  2.74
   3744.60   10.754  2.74
   3747.34   10.878  2.74
   3750.08   10.950  2.74
   3752.82   10.887  2.74
   3755.56   10.687  2.74
   3758.30   10.658  2.74
   3761.04   10.679  2.74
   3763.78   10.681  2.74
   3766.52   10.698  2.74
   3769.26   10.857  2.74
   3772.00   10.923  2.74
   3774.74   10.740  2.74
   3777.48   10.608  2.74
   3780.22   10.536  2.74
   3782.96   10.515  2.74
   3785.70   10.559  2.74
   3788.44   10.550  2.74
   3791.18   10.587  2.74
   3793.92   10.686  2.74
   3796.66   10.862  2.74
   3799.40   10.943  2.74
   3802.14   10.718  2.74
   3804.88   10.600  2.74
   3807.62   10.567  2.74
   3810.36   10.513  2.74
   3813.10   10.499  2.74
   3815.84   10.521  2.74
   3818.58   10.503  2.74
   3821.32   10.505  2.74
   3824.06   10.535  2.74
   3826.80   10.587  2.74
   3829.54   10.660  2.74
   3832.28   10.769  2.74
   3835.02   10.956  2.74
   3837.76   10.884  2.74
   3840.50   10.701  2.74
   3843.24   10.581  2.74
   3845.98   10.495  2.74
   3848.72   10.471  2.74
   3851.46   10.458  2.74
   3854.20   10.442  2.74
   3856.94   10.447  2.74
   3859.68   10.458  2.74
   3862.42   10.431  2.74
   3865.16   10.419  2.74
   3867.90   10.414  2.74
   3870.64   10.431  2.74
   3873.38   10.462  2.74
   3876.12   10.472  2.74
   3878.86   10.498  2.74
   3881.60   10.522  2.74
   3884.34   10.591  2.74
   3887.08   10.777  2.74
   3889.82   10.903  2.74
   3892.56   10.740  2.74
   3895.30   10.579  2.74
   3898.04   10.528  2.74
   3900.78   10.500  2.74
   3903.52   10.470  2.74
   3906.26   10.467  2.74
   3909.00   10.421  2.74
   3911.74   10.406  2.74
   3914.48   10.387  2.74
   3917.22   10.409  2.74
   3919.96   10.423  2.74
   3922.70   10.419  2.74
   3925.44   10.434  2.74
   3928.18   10.486  2.74
   3930.92   10.699  2.74
   3933.66   11.048  2.74
   3936.40   10.845  2.74
   3939.14   10.512  2.74
   3941.88   10.451  2.74
   3944.62   10.401  2.74
   3947.36   10.399  2.74
   3950.10   10.410  2.74
   3952.84   10.402  2.74
   3955.58   10.404  2.74
   3958.32   10.443  2.74
   3961.06   10.476  2.74
   3963.80   10.583  2.74
   3966.54   10.825  2.74
   3969.28   11.195  2.74
   3972.02   10.936  2.74
   3974.76   10.619  2.74
   3977.50   10.491  2.74
   3980.24   10.446  2.74
   3982.98   10.395  2.74
   3985.72   10.373  2.74
   3988.46   10.357  2.74
   3991.20   10.340  2.74
   3993.94   10.343  2.74
   3996.68   10.330  2.74
   3999.42   10.338  2.74
   4002.16   10.317  2.74
   4004.90   10.308  2.74
   4007.64   10.337  2.74
   4010.38   10.312  2.74
   4013.12   10.296  2.74
   4015.86   10.297  2.74
   4018.60   10.293  2.74
   4021.34   10.295  2.74
   4024.08   10.293  2.74
   4026.82   10.289  2.74
   4029.56   10.305  2.74
   4032.30   10.308  2.74
   4035.04   10.310  2.74
   4037.78   10.283  2.74
   4040.52   10.287  2.74
   4043.26   10.281  2.74
   4046.00   10.307  2.74
   4048.74   10.283  2.74
   4051.48   10.275  2.74
   4054.22   10.289  2.74
   4056.96   10.278  2.74
   4059.70   10.285  2.74
   4062.44   10.291  2.74
   4065.18   10.301  2.74
   4067.92   10.287  2.74
   4070.66   10.295  2.74
   4073.40   10.306  2.74
   4076.14   10.321  2.74
   4078.88   10.322  2.74
   4081.62   10.300  2.74
   4084.36   10.309  2.74
   4087.10   10.317  2.74
   4089.84   10.326  2.74
   4092.58   10.361  2.74
   4095.32   10.418  2.74
   4098.06   10.528  2.74
   4100.80   10.693  2.74
   4103.54   10.724  2.74
   4106.28   10.502  2.74
   4109.02   10.415  2.74
   4111.76   10.356  2.74
   4114.50   10.329  2.74
   4117.24   10.314  2.74
   4119.98   10.292  2.74
   4122.72   10.292  2.74
   4125.46   10.273  2.74
   4128.20   10.284  2.74
   4130.94   10.282  2.74
   4133.68   10.289  2.74
   4136.42   10.266  2.74
   4139.16   10.259  2.74
   4141.90   10.264  2.74
   4144.64   10.270  2.74
   4147.38   10.257  2.74
   4150.12   10.260  2.74
   4152.86   10.260  2.74
   4155.60   10.263  2.74
   4158.34   10.243  2.74
   4161.08   10.239  2.74
   4163.82   10.244  2.74
   4166.56   10.249  2.74
   4169.30   10.237  2.74
   4172.04   10.260  2.74
   4174.78   10.278  2.74
   4177.52   10.259  2.74
   4180.26   10.255  2.74
   4183.00   10.260  2.74
   4185.74   10.257  2.74
   4188.48   10.261  2.74
   4191.22   10.240  2.74
   4193.96   10.241  2.74
   4196.70   10.243  2.74
   4199.44   10.263  2.74
   4202.18   10.260  2.74
   4204.92   10.236  2.74
   4207.66   10.224  2.74
   4210.40   10.244  2.74
   4213.14   10.247  2.74
   4215.88   10.252  2.74
   4218.62   10.238  2.74
   4221.36   10.228  2.74
   4224.10   10.242  2.74
   4226.84   10.273  2.74
   4229.58   10.246  2.74
   4232.32   10.235  2.74
   4235.06   10.255  2.74
   4237.80   10.240  2.74
   4240.54   10.221  2.74
   4243.28   10.205  2.74
   4246.02   10.228  2.74
   4248.76   10.241  2.74
   4251.50   10.248  2.74
   4254.24   10.238  2.74
   4256.98   10.211  2.74
   4259.72   10.233  2.74
   4262.46   10.211  2.74
   4265.20   10.202  2.74
   4267.94   10.212  2.74
   4270.68   10.236  2.74
   4273.42   10.228  2.74
   4276.16   10.224  2.74
   4278.90   10.205  2.74
   4281.64   10.210  2.74
   4284.38   10.226  2.74
   4287.12   10.237  2.74
   4289.86   10.262  2.74
   4292.60   10.246  2.74
   4295.34   10.232  2.74
   4298.08   10.253  2.74
   4300.82   10.276  2.74
   4303.56   10.257  2.74
   4306.30   10.248  2.74
   4309.04   10.264  2.74
   4311.78   10.263  2.74
   4314.52   10.261  2.74
   4317.26   10.234  2.74
   4320.00   10.238  2.74
   4322.74   10.252  2.74
   4325.48   10.268  2.74
   4328.22   10.273  2.74
   4330.96   10.274  2.74
   4333.70   10.331  2.74
   4336.44   10.420  2.74
   4339.18   10.604  2.74
   4341.92   10.623  2.74
   4344.66   10.430  2.74
   4347.40   10.314  2.74
   4350.14   10.289  2.74
   4352.88   10.270  2.74
   4355.62   10.227  2.74
   4358.36   10.203  2.74
   4361.10   10.188  2.74
   4363.84   10.194  2.74
   4366.58   10.184  2.74
   4369.32   10.198  2.74
   4372.06   10.190  2.74
   4374.80   10.215  2.74
   4377.54   10.195  2.74
   4380.28   10.182  2.74
   4383.02   10.203  2.74
   4385.76   10.190  2.74
   4388.50   10.179  2.74
   4391.24   10.179  2.74
   4393.98   10.179  2.74
   4396.72   10.178  2.74
   4399.46   10.188  2.74
   4402.20   10.184  2.74
   4404.94   10.184  2.74
   4407.68   10.195  2.74
   4410.42   10.158  2.74
   4413.16   10.156  2.74
   4415.90   10.179  2.74
   4418.64   10.165  2.74
   4421.38   10.165  2.74
   4424.12   10.158  2.74
   4426.86   10.169  2.74
   4429.60   10.150  2.74
   4432.34   10.157  2.74
   4435.08   10.171  2.74
   4437.82   10.153  2.74
   4440.56   10.154  2.74
   4443.30   10.171  2.74
   4446.04   10.151  2.74
   4448.78   10.147  2.74
   4451.52   10.158  2.74
   4454.26   10.166  2.74
   4457.00   10.163  2.74
   4459.74   10.152  2.74
   4462.48   10.166  2.74
   4465.22   10.169  2.74
   4467.96   10.161  2.74
   4470.70   10.159  2.74
   4473.44   10.143  2.74
   4476.18   10.139  2.74
   4478.92   10.144  2.74
   4481.66   10.146  2.74
   4484.40   10.143  2.74
   4487.14   10.140  2.74
   4489.88   10.136  2.74
   4492.62   10.150  2.74
   4495.36   10.143  2.74
   4498.10   10.135  2.74
   4500.84   10.150  2.74
   4503.58   10.137  2.74
   4506.32   10.140  2.74
   4509.06   10.142  2.74
   4511.80   10.144  2.74
   4514.54   10.144  2.74
   4517.28   10.143  2.74
   4520.02   10.136  2.74
   4522.76   10.144  2.74
   4525.50   10.141  2.74
   4528.24   10.148  2.74
   4530.98   10.145  2.74
   4533.72   10.154  2.74
   4536.46   10.144  2.74
   4539.20   10.134  2.74
   4541.94   10.136  2.74
   4544.68   10.137  2.74
   4547.42   10.152  2.74
   4550.16   10.148  2.74
   4552.90   10.144  2.74
   4555.64   10.142  2.74
   4558.38   10.132  2.74
   4561.12   10.132  2.74
   4563.86   10.143  2.74
   4566.60   10.132  2.74
   4569.34   10.127  2.74
   4572.08   10.127  2.74
   4574.82   10.124  2.74
   4577.56   10.128  2.74
   4580.30   10.119  2.74
   4583.04   10.129  2.74
   4585.78   10.122  2.74
   4588.52   10.117  2.74
   4591.26   10.117  2.74
   4594.00   10.119  2.74
   4596.74   10.114  2.74
   4599.48   10.120  2.74
   4602.22   10.108  2.74
   4604.96   10.104  2.74
   4607.70   10.108  2.74
   4610.44   10.111  2.74
   4613.18   10.107  2.74
   4615.92   10.113  2.74
   4618.66   10.107  2.74
   4621.40   10.097  2.74
   4624.14   10.096  2.74
   4626.88   10.107  2.74
   4629.62   10.095  2.74
   4632.36   10.102  2.74
   4635.10   10.101  2.74
   4637.84   10.100  2.74
   4640.58   10.089  2.74
   4643.32   10.096  2.74
   4646.06   10.097  2.74
   4648.80   10.099  2.74
   4651.54   10.099  2.74
   4654.28   10.095  2.74
   4657.02   10.102  2.74
   4659.76   10.102  2.74
   4662.50   10.101  2.74
   4665.24   10.096  2.74
   4667.98   10.093  2.74
   4670.72   10.093  2.74
   4673.46   10.096  2.74
   4676.20   10.091  2.74
   4678.94   10.096  2.74
   4681.68   10.088  2.74
   4684.42   10.087  2.74
   4687.16   10.087  2.74
   4689.90   10.082  2.74
   4692.64   10.086  2.74
   4695.38   10.094  2.74
   4698.12   10.088  2.74
   4700.86   10.084  2.74
   4703.60   10.096  2.74
   4706.34   10.100  2.74
   4709.08   10.086  2.74
   4711.82   10.074  2.74
   4714.56   10.080  2.74
   4717.30   10.092  2.74
   4720.04   10.082  2.74
   4722.78   10.077  2.74
   4725.52   10.076  2.74
   4728.26   10.075  2.74
   4731.00   10.080  2.74
   4733.74   10.082  2.74
   4736.48   10.075  2.74
   4739.22   10.064  2.74
   4741.96   10.072  2.74
   4744.70   10.077  2.74
   4747.44   10.086  2.74
   4750.18   10.081  2.74
   4752.92   10.075  2.74
   4755.66   10.089  2.74
   4758.40   10.087  2.74
   4761.14   10.086  2.74
   4763.88   10.074  2.74
   4766.62   10.068  2.74
   4769.36   10.077  2.74
   4772.10   10.075  2.74
   4774.84   10.077  2.74
   4777.58   10.078  2.74
   4780.32   10.072  2.74
   4783.06   10.069  2.74
   4785.80   10.069  2.74
   4788.54   10.074  2.74
   4791.28   10.074  2.74
   4794.02   10.067  2.74
   4796.76   10.068  2.74
   4799.50   10.067  2.74
   4802.24   10.069  2.74
   4804.98   10.071  2.74
   4807.72   10.071  2.74
   4810.46   10.071  2.74
   4813.20   10.067  2.74
   4815.94   10.061  2.74
   4818.68   10.056  2.74
   4821.42   10.059  2.74
   4824.16   10.071  2.74
   4826.90   10.079  2.74
   4829.64   10.074  2.74
   4832.38   10.070  2.74
   4835.12   10.082  2.74
   4837.86   10.085  2.74
   4840.60   10.072  2.74
   4843.34   10.083  2.74
   4846.08   10.103  2.74
   4848.82   10.117  2.74
   4851.56   10.143  2.74
   4854.30   10.176  2.74
   4857.04   10.263  2.74
   4859.78   10.429  2.74
   4862.52   10.441  2.74
   4865.26   10.290  2.74
   4868.00   10.187  2.74
   4870.74   10.144  2.74
   4873.48   10.117  2.74
   4876.22   10.095  2.74
   4878.96   10.079  2.74
   4881.70   10.071  2.74
   4884.44   10.071  2.74
   4887.18   10.069  2.74
   4889.92   10.073  2.74
   4892.66   10.070  2.74
   4895.40   10.054  2.74
   4898.14   10.052  2.74
   4900.88   10.057  2.74
   4903.62   10.053  2.74
   4906.36   10.048  2.74
   4909.10   10.043  2.74
   4911.84   10.049  2.74
   4914.58   10.048  2.74
   4917.32   10.058  2.74
   4920.06   10.069  2.74
   4922.80   10.053  2.74
   4925.54   10.041  2.74
   4928.28   10.035  2.74
   4931.02   10.043  2.74
   4933.76   10.053  2.74
   4936.50   10.048  2.74
   4939.24   10.042  2.74
   4941.98   10.048  2.74
   4944.72   10.049  2.74
   4947.46   10.035  2.74
   4950.20   10.037  2.74
   4952.94   10.033  2.74
   4955.68   10.039  2.74
   4958.42   10.053  2.74
   4961.16   10.038  2.74
   4963.90   10.043  2.74
   4966.64   10.044  2.74
   4969.38   10.030  2.74
   4972.12   10.036  2.74
   4974.86   10.032  2.74
   4977.60   10.025  2.74
   4980.34   10.035  2.74
   4983.08   10.047  2.74
   4985.82   10.040  2.74
   4988.56   10.036  2.74
   4991.30   10.036  2.74
   4994.04   10.031  2.74
   4996.78   10.036  2.74
   4999.52   10.038  2.74
   5002.26   10.025  2.74
   5005.00   10.033  2.74
   5007.74   10.044  2.74
   5010.48   10.041  2.74
   5013.22   10.037  2.74
   5015.96   10.052  2.74
   5018.70   10.053  2.74
   5021.44   10.038  2.74
   5024.18   10.036  2.74
   5026.92   10.019  2.74
   5029.66   10.024  2.74
   5032.40   10.038  2.74
