#G13-35                                                      
#                                                            
#  Heap-Lindler STIS                                         
# wavelength  ABmag  band
   2950.00   11.401  2.74
   2952.74   11.369  2.74
   2955.48   11.357  2.74
   2958.22   11.329  2.74
   2960.96   11.318  2.74
   2963.70   11.319  2.74
   2966.44   11.404  2.74
   2969.18   11.414  2.74
   2971.92   11.396  2.74
   2974.66   11.325  2.74
   2977.40   11.283  2.74
   2980.14   11.327  2.74
   2982.88   11.387  2.74
   2985.62   11.438  2.74
   2988.36   11.343  2.74
   2991.10   11.267  2.74
   2993.84   11.292  2.74
   2996.58   11.296  2.74
   2999.32   11.334  2.74
   3002.06   11.360  2.74
   3004.80   11.315  2.74
   3007.54   11.297  2.74
   3010.28   11.264  2.74
   3013.02   11.266  2.74
   3015.76   11.305  2.74
   3018.50   11.358  2.74
   3021.24   11.355  2.74
   3023.98   11.263  2.74
   3026.72   11.267  2.74
   3029.46   11.212  2.74
   3032.20   11.218  2.74
   3034.94   11.213  2.74
   3037.68   11.236  2.74
   3040.42   11.242  2.74
   3043.16   11.247  2.74
   3045.90   11.219  2.74
   3048.64   11.222  2.74
   3051.38   11.194  2.74
   3054.12   11.212  2.74
   3056.86   11.270  2.74
   3059.60   11.290  2.74
   3062.34   11.281  2.74
   3065.08   11.332  2.74
   3067.82   11.296  2.74
   3070.56   11.271  2.74
   3073.30   11.269  2.74
   3076.04   11.237  2.74
   3078.78   11.243  2.74
   3081.52   11.219  2.74
   3084.26   11.211  2.74
   3087.00   11.273  2.74
   3089.74   11.314  2.74
   3092.48   11.309  2.74
   3095.22   11.272  2.74
   3097.96   11.290  2.74
   3100.70   11.294  2.74
   3103.44   11.246  2.74
   3106.18   11.179  2.74
   3108.92   11.142  2.74
   3111.66   11.158  2.74
   3114.40   11.177  2.74
   3117.14   11.219  2.74
   3119.88   11.231  2.74
   3122.62   11.216  2.74
   3125.36   11.230  2.74
   3128.10   11.203  2.74
   3130.84   11.175  2.74
   3133.58   11.177  2.74
   3136.32   11.163  2.74
   3139.06   11.162  2.74
   3141.80   11.195  2.74
   3144.54   11.217  2.74
   3147.28   11.178  2.74
   3150.02   11.149  2.74
   3152.76   11.138  2.74
   3155.50   11.160  2.74
   3158.24   11.193  2.74
   3160.98   11.188  2.74
   3163.72   11.160  2.74
   3166.46   11.140  2.74
   3169.20   11.111  2.74
   3171.94   11.084  2.74
   3174.68   11.103  2.74
   3177.42   11.137  2.74
   3180.16   11.188  2.74
   3182.90   11.146  2.74
   3185.64   11.122  2.74
   3188.38   11.153  2.74
   3191.12   11.141  2.74
   3193.86   11.154  2.74
   3196.60   11.127  2.74
   3199.34   11.077  2.74
   3202.08   11.057  2.74
   3204.82   11.048  2.74
   3207.56   11.065  2.74
   3210.30   11.120  2.74
   3213.04   11.150  2.74
   3215.78   11.118  2.74
   3218.52   11.084  2.74
   3221.26   11.062  2.74
   3224.00   11.078  2.74
   3226.74   11.118  2.74
   3229.48   11.138  2.74
   3232.22   11.154  2.74
   3234.96   11.125  2.74
   3237.70   11.088  2.74
   3240.44   11.066  2.74
   3243.18   11.042  2.74
   3245.92   11.048  2.74
   3248.66   11.061  2.74
   3251.40   11.057  2.74
   3254.14   11.011  2.74
   3256.88   10.990  2.74
   3259.62   10.992  2.74
   3262.36   10.993  2.74
   3265.10   10.996  2.74
   3267.84   10.969  2.74
   3270.58   10.975  2.74
   3273.32   10.988  2.74
   3276.06   11.009  2.74
   3278.80   10.988  2.74
   3281.54   10.981  2.74
   3284.28   10.980  2.74
   3287.02   10.955  2.74
   3289.76   10.934  2.74
   3292.50   10.914  2.74
   3295.24   10.920  2.74
   3297.98   10.902  2.74
   3300.72   10.915  2.74
   3303.46   10.951  2.74
   3306.20   10.947  2.74
   3308.94   10.926  2.74
   3311.68   10.916  2.74
   3314.42   10.927  2.74
   3317.16   10.923  2.74
   3319.90   10.927  2.74
   3322.64   10.956  2.74
   3325.38   10.951  2.74
   3328.12   10.939  2.74
   3330.86   10.946  2.74
   3333.60   10.948  2.74
   3336.34   10.945  2.74
   3339.08   10.939  2.74
   3341.82   10.931  2.74
   3344.56   10.930  2.74
   3347.30   10.947  2.74
   3350.04   10.957  2.74
   3352.78   10.919  2.74
   3355.52   10.928  2.74
   3358.26   10.923  2.74
   3361.00   10.928  2.74
   3363.74   10.917  2.74
   3366.48   10.929  2.74
   3369.22   10.966  2.74
   3371.96   10.964  2.74
   3374.70   10.919  2.74
   3377.44   10.912  2.74
   3380.18   10.920  2.74
   3382.92   10.916  2.74
   3385.66   10.903  2.74
   3388.40   10.888  2.74
   3391.14   10.900  2.74
   3393.88   10.906  2.74
   3396.62   10.841  2.74
   3399.36   10.842  2.74
   3402.10   10.860  2.74
   3404.84   10.885  2.74
   3407.58   10.882  2.74
   3410.32   10.884  2.74
   3413.06   10.886  2.74
   3415.80   10.872  2.74
   3418.54   10.844  2.74
   3421.28   10.845  2.74
   3424.02   10.849  2.74
   3426.76   10.828  2.74
   3429.50   10.817  2.74
   3432.24   10.796  2.74
   3434.98   10.840  2.74
   3437.72   10.846  2.74
   3440.46   10.899  2.74
   3443.20   10.899  2.74
   3445.94   10.866  2.74
   3448.68   10.853  2.74
   3451.42   10.819  2.74
   3454.16   10.841  2.74
   3456.90   10.813  2.74
   3459.64   10.826  2.74
   3462.38   10.833  2.74
   3465.12   10.810  2.74
   3467.86   10.804  2.74
   3470.60   10.810  2.74
   3473.34   10.831  2.74
   3476.08   10.845  2.74
   3478.82   10.818  2.74
   3481.56   10.785  2.74
   3484.30   10.777  2.74
   3487.04   10.794  2.74
   3489.78   10.815  2.74
   3492.52   10.818  2.74
   3495.26   10.822  2.74
   3498.00   10.812  2.74
   3500.74   10.795  2.74
   3503.48   10.772  2.74
   3506.22   10.779  2.74
   3508.96   10.780  2.74
   3511.70   10.801  2.74
   3514.44   10.801  2.74
   3517.18   10.781  2.74
   3519.92   10.786  2.74
   3522.66   10.807  2.74
   3525.40   10.827  2.74
   3528.14   10.801  2.74
   3530.88   10.766  2.74
   3533.62   10.758  2.74
   3536.36   10.744  2.74
   3539.10   10.738  2.74
   3541.84   10.717  2.74
   3544.58   10.700  2.74
   3547.32   10.719  2.74
   3550.06   10.715  2.74
   3552.80   10.726  2.74
   3555.54   10.735  2.74
   3558.28   10.731  2.74
   3561.02   10.739  2.74
   3563.76   10.727  2.74
   3566.50   10.770  2.74
   3569.24   10.808  2.74
   3571.98   10.805  2.74
   3574.72   10.776  2.74
   3577.46   10.761  2.74
   3580.20   10.753  2.74
   3582.94   10.786  2.74
   3585.68   10.805  2.74
   3588.42   10.802  2.74
   3591.16   10.756  2.74
   3593.90   10.718  2.74
   3596.64   10.701  2.74
   3599.38   10.678  2.74
   3602.12   10.704  2.74
   3604.86   10.736  2.74
   3607.60   10.728  2.74
   3610.34   10.727  2.74
   3613.08   10.723  2.74
   3615.82   10.720  2.74
   3618.56   10.714  2.74
   3621.30   10.711  2.74
   3624.04   10.689  2.74
   3626.78   10.662  2.74
   3629.52   10.705  2.74
   3632.26   10.728  2.74
   3635.00   10.678  2.74
   3637.74   10.672  2.74
   3640.48   10.661  2.74
   3643.22   10.670  2.74
   3645.96   10.693  2.74
   3648.70   10.682  2.74
   3651.44   10.660  2.74
   3654.18   10.651  2.74
   3656.92   10.613  2.74
   3659.66   10.622  2.74
   3662.40   10.621  2.74
   3665.14   10.597  2.74
   3667.88   10.609  2.74
   3670.62   10.623  2.74
   3673.36   10.607  2.74
   3676.10   10.639  2.74
   3678.84   10.641  2.74
   3681.58   10.646  2.74
   3684.32   10.662  2.74
   3687.06   10.642  2.74
   3689.80   10.617  2.74
   3692.54   10.598  2.74
   3695.28   10.597  2.74
   3698.02   10.596  2.74
   3700.76   10.579  2.74
   3703.50   10.639  2.74
   3706.24   10.677  2.74
   3708.98   10.633  2.74
   3711.72   10.645  2.74
   3714.46   10.571  2.74
   3717.20   10.546  2.74
   3719.94   10.621  2.74
   3722.68   10.675  2.74
   3725.42   10.572  2.74
   3728.16   10.525  2.74
   3730.90   10.553  2.74
   3733.64   10.683  2.74
   3736.38   10.692  2.74
   3739.12   10.542  2.74
   3741.86   10.473  2.74
   3744.60   10.541  2.74
   3747.34   10.645  2.74
   3750.08   10.713  2.74
   3752.82   10.568  2.74
   3755.56   10.448  2.74
   3758.30   10.434  2.74
   3761.04   10.440  2.74
   3763.78   10.439  2.74
   3766.52   10.505  2.74
   3769.26   10.609  2.74
   3772.00   10.606  2.74
   3774.74   10.469  2.74
   3777.48   10.351  2.74
   3780.22   10.306  2.74
   3782.96   10.307  2.74
   3785.70   10.314  2.74
   3788.44   10.342  2.74
   3791.18   10.386  2.74
   3793.92   10.480  2.74
   3796.66   10.616  2.74
   3799.40   10.622  2.74
   3802.14   10.440  2.74
   3804.88   10.350  2.74
   3807.62   10.285  2.74
   3810.36   10.274  2.74
   3813.10   10.312  2.74
   3815.84   10.303  2.74
   3818.58   10.287  2.74
   3821.32   10.315  2.74
   3824.06   10.321  2.74
   3826.80   10.393  2.74
   3829.54   10.452  2.74
   3832.28   10.582  2.74
   3835.02   10.730  2.74
   3837.76   10.639  2.74
   3840.50   10.472  2.74
   3843.24   10.350  2.74
   3845.98   10.284  2.74
   3848.72   10.245  2.74
   3851.46   10.238  2.74
   3854.20   10.234  2.74
   3856.94   10.230  2.74
   3859.68   10.246  2.74
   3862.42   10.207  2.74
   3865.16   10.191  2.74
   3867.90   10.204  2.74
   3870.64   10.213  2.74
   3873.38   10.242  2.74
   3876.12   10.251  2.74
   3878.86   10.282  2.74
   3881.60   10.302  2.74
   3884.34   10.389  2.74
   3887.08   10.553  2.74
   3889.82   10.634  2.74
   3892.56   10.454  2.74
   3895.30   10.338  2.74
   3898.04   10.295  2.74
   3900.78   10.258  2.74
   3903.52   10.260  2.74
   3906.26   10.247  2.74
   3909.00   10.192  2.74
   3911.74   10.182  2.74
   3914.48   10.184  2.74
   3917.22   10.192  2.74
   3919.96   10.215  2.74
   3922.70   10.214  2.74
   3925.44   10.243  2.74
   3928.18   10.374  2.74
   3930.92   10.656  2.74
   3933.66   10.963  2.74
   3936.40   10.681  2.74
   3939.14   10.355  2.74
   3941.88   10.252  2.74
   3944.62   10.206  2.74
   3947.36   10.188  2.74
   3950.10   10.188  2.74
   3952.84   10.185  2.74
   3955.58   10.201  2.74
   3958.32   10.223  2.74
   3961.06   10.277  2.74
   3963.80   10.409  2.74
   3966.54   10.703  2.74
   3969.28   10.935  2.74
   3972.02   10.651  2.74
   3974.76   10.383  2.74
   3977.50   10.255  2.74
   3980.24   10.172  2.74
   3982.98   10.152  2.74
   3985.72   10.151  2.74
   3988.46   10.131  2.74
   3991.20   10.107  2.74
   3993.94   10.108  2.74
   3996.68   10.121  2.74
   3999.42   10.105  2.74
   4002.16   10.102  2.74
   4004.90   10.105  2.74
   4007.64   10.081  2.74
   4010.38   10.087  2.74
   4013.12   10.081  2.74
   4015.86   10.070  2.74
   4018.60   10.059  2.74
   4021.34   10.055  2.74
   4024.08   10.062  2.74
   4026.82   10.071  2.74
   4029.56   10.090  2.74
   4032.30   10.099  2.74
   4035.04   10.067  2.74
   4037.78   10.055  2.74
   4040.52   10.038  2.74
   4043.26   10.060  2.74
   4046.00   10.082  2.74
   4048.74   10.060  2.74
   4051.48   10.041  2.74
   4054.22   10.051  2.74
   4056.96   10.061  2.74
   4059.70   10.054  2.74
   4062.44   10.083  2.74
   4065.18   10.077  2.74
   4067.92   10.065  2.74
   4070.66   10.079  2.74
   4073.40   10.072  2.74
   4076.14   10.077  2.74
   4078.88   10.079  2.74
   4081.62   10.059  2.74
   4084.36   10.072  2.74
   4087.10   10.080  2.74
   4089.84   10.081  2.74
   4092.58   10.123  2.74
   4095.32   10.168  2.74
   4098.06   10.270  2.74
   4100.80   10.427  2.74
   4103.54   10.386  2.74
   4106.28   10.218  2.74
   4109.02   10.148  2.74
   4111.76   10.107  2.74
   4114.50   10.074  2.74
   4117.24   10.069  2.74
   4119.98   10.051  2.74
   4122.72   10.045  2.74
   4125.46   10.040  2.74
   4128.20   10.033  2.74
   4130.94   10.036  2.74
   4133.68   10.043  2.74
   4136.42   10.027  2.74
   4139.16   10.017  2.74
   4141.90   10.035  2.74
   4144.64   10.031  2.74
   4147.38   10.026  2.74
   4150.12   10.022  2.74
   4152.86   10.016  2.74
   4155.60   10.029  2.74
   4158.34   10.022  2.74
   4161.08   10.016  2.74
   4163.82   10.016  2.74
   4166.56   10.011  2.74
   4169.30   10.006  2.74
   4172.04   10.037  2.74
   4174.78   10.032  2.74
   4177.52   10.024  2.74
   4180.26   10.014  2.74
   4183.00   10.007  2.74
   4185.74   10.025  2.74
   4188.48   10.019  2.74
   4191.22    9.996  2.74
   4193.96    9.999  2.74
   4196.70   10.016  2.74
   4199.44   10.027  2.74
   4202.18   10.008  2.74
   4204.92    9.994  2.74
   4207.66    9.991  2.74
   4210.40   10.002  2.74
   4213.14   10.002  2.74
   4215.88   10.005  2.74
   4218.62   10.012  2.74
   4221.36    9.996  2.74
   4224.10   10.016  2.74
   4226.84   10.040  2.74
   4229.58   10.001  2.74
   4232.32   10.000  2.74
   4235.06   10.004  2.74
   4237.80    9.996  2.74
   4240.54    9.985  2.74
   4243.28    9.985  2.74
   4246.02   10.007  2.74
   4248.76   10.007  2.74
   4251.50    9.999  2.74
   4254.24    9.988  2.74
   4256.98    9.986  2.74
   4259.72    9.985  2.74
   4262.46    9.970  2.74
   4265.20    9.965  2.74
   4267.94    9.980  2.74
   4270.68   10.006  2.74
   4273.42   10.008  2.74
   4276.16    9.973  2.74
   4278.90    9.970  2.74
   4281.64    9.983  2.74
   4284.38    9.949  2.74
   4287.12    9.995  2.74
   4289.86   10.018  2.74
   4292.60   10.010  2.74
   4295.34   10.003  2.74
   4298.08   10.038  2.74
   4300.82   10.063  2.74
   4303.56   10.051  2.74
   4306.30   10.047  2.74
   4309.04   10.047  2.74
   4311.78   10.032  2.74
   4314.52   10.008  2.74
   4317.26    9.986  2.74
   4320.00    9.979  2.74
   4322.74   10.004  2.74
   4325.48   10.014  2.74
   4328.22   10.009  2.74
   4330.96   10.019  2.74
   4333.70   10.069  2.74
   4336.44   10.156  2.74
   4339.18   10.321  2.74
   4341.92   10.288  2.74
   4344.66   10.145  2.74
   4347.40   10.050  2.74
   4350.14   10.023  2.74
   4352.88   10.008  2.74
   4355.62    9.971  2.74
   4358.36    9.945  2.74
   4361.10    9.935  2.74
   4363.84    9.903  2.74
   4366.58    9.924  2.74
   4369.32    9.944  2.74
   4372.06    9.928  2.74
   4374.80    9.944  2.74
   4377.54    9.944  2.74
   4380.28    9.937  2.74
   4383.02    9.952  2.74
   4385.76    9.939  2.74
   4388.50    9.922  2.74
   4391.24    9.924  2.74
   4393.98    9.930  2.74
   4396.72    9.934  2.74
   4399.46    9.928  2.74
   4402.20    9.936  2.74
   4404.94    9.920  2.74
   4407.68    9.913  2.74
   4410.42    9.907  2.74
   4413.16    9.907  2.74
   4415.90    9.913  2.74
   4418.64    9.911  2.74
   4421.38    9.905  2.74
   4424.12    9.914  2.74
   4426.86    9.883  2.74
   4429.60    9.893  2.74
   4432.34    9.911  2.74
   4435.08    9.911  2.74
   4437.82    9.903  2.74
   4440.56    9.911  2.74
   4443.30    9.915  2.74
   4446.04    9.900  2.74
   4448.78    9.902  2.74
   4451.52    9.899  2.74
   4454.26    9.908  2.74
   4457.00    9.915  2.74
   4459.74    9.909  2.74
   4462.48    9.904  2.74
   4465.22    9.896  2.74
   4467.96    9.905  2.74
   4470.70    9.895  2.74
   4473.44    9.880  2.74
   4476.18    9.879  2.74
   4478.92    9.892  2.74
   4481.66    9.896  2.74
   4484.40    9.886  2.74
   4487.14    9.880  2.74
   4489.88    9.888  2.74
   4492.62    9.887  2.74
   4495.36    9.885  2.74
   4498.10    9.883  2.74
   4500.84    9.885  2.74
   4503.58    9.881  2.74
   4506.32    9.875  2.74
   4509.06    9.872  2.74
   4511.80    9.874  2.74
   4514.54    9.874  2.74
   4517.28    9.880  2.74
   4520.02    9.879  2.74
   4522.76    9.881  2.74
   4525.50    9.881  2.74
   4528.24    9.892  2.74
   4530.98    9.902  2.74
   4533.72    9.901  2.74
   4536.46    9.884  2.74
   4539.20    9.863  2.74
   4541.94    9.865  2.74
   4544.68    9.870  2.74
   4547.42    9.878  2.74
   4550.16    9.882  2.74
   4552.90    9.887  2.74
   4555.64    9.883  2.74
   4558.38    9.866  2.74
   4561.12    9.863  2.74
   4563.86    9.869  2.74
   4566.60    9.856  2.74
   4569.34    9.859  2.74
   4572.08    9.862  2.74
   4574.82    9.855  2.74
   4577.56    9.851  2.74
   4580.30    9.849  2.74
   4583.04    9.857  2.74
   4585.78    9.853  2.74
   4588.52    9.845  2.74
   4591.26    9.862  2.74
   4594.00    9.853  2.74
   4596.74    9.845  2.74
   4599.48    9.843  2.74
   4602.22    9.843  2.74
   4604.96    9.843  2.74
   4607.70    9.838  2.74
   4610.44    9.837  2.74
   4613.18    9.835  2.74
   4615.92    9.830  2.74
   4618.66    9.830  2.74
   4621.40    9.832  2.74
   4624.14    9.837  2.74
   4626.88    9.836  2.74
   4629.62    9.832  2.74
   4632.36    9.827  2.74
   4635.10    9.833  2.74
   4637.84    9.833  2.74
   4640.58    9.824  2.74
   4643.32    9.827  2.74
   4646.06    9.831  2.74
   4648.80    9.827  2.74
   4651.54    9.821  2.74
   4654.28    9.823  2.74
   4657.02    9.825  2.74
   4659.76    9.816  2.74
   4662.50    9.813  2.74
   4665.24    9.826  2.74
   4667.98    9.832  2.74
   4670.72    9.821  2.74
   4673.46    9.815  2.74
   4676.20    9.815  2.74
   4678.94    9.813  2.74
   4681.68    9.815  2.74
   4684.42    9.811  2.74
   4687.16    9.803  2.74
   4689.90    9.814  2.74
   4692.64    9.821  2.74
   4695.38    9.811  2.74
   4698.12    9.805  2.74
   4700.86    9.813  2.74
   4703.60    9.822  2.74
   4706.34    9.819  2.74
   4709.08    9.812  2.74
   4711.82    9.810  2.74
   4714.56    9.806  2.74
   4717.30    9.802  2.74
   4720.04    9.801  2.74
   4722.78    9.800  2.74
   4725.52    9.804  2.74
   4728.26    9.807  2.74
   4731.00    9.801  2.74
   4733.74    9.804  2.74
   4736.48    9.809  2.74
   4739.22    9.805  2.74
   4741.96    9.801  2.74
   4744.70    9.796  2.74
   4747.44    9.791  2.74
   4750.18    9.796  2.74
   4752.92    9.800  2.74
   4755.66    9.805  2.74
   4758.40    9.807  2.74
   4761.14    9.800  2.74
   4763.88    9.797  2.74
   4766.62    9.800  2.74
   4769.36    9.798  2.74
   4772.10    9.795  2.74
   4774.84    9.793  2.74
   4777.58    9.791  2.74
   4780.32    9.797  2.74
   4783.06    9.796  2.74
   4785.80    9.788  2.74
   4788.54    9.786  2.74
   4791.28    9.786  2.74
   4794.02    9.786  2.74
   4796.76    9.788  2.74
   4799.50    9.789  2.74
   4802.24    9.794  2.74
   4804.98    9.792  2.74
   4807.72    9.785  2.74
   4810.46    9.787  2.74
   4813.20    9.784  2.74
   4815.94    9.776  2.74
   4818.68    9.778  2.74
   4821.42    9.786  2.74
   4824.16    9.792  2.74
   4826.90    9.789  2.74
   4829.64    9.781  2.74
   4832.38    9.791  2.74
   4835.12    9.797  2.74
   4837.86    9.787  2.74
   4840.60    9.792  2.74
   4843.34    9.805  2.74
   4846.08    9.815  2.74
   4848.82    9.821  2.74
   4851.56    9.834  2.74
   4854.30    9.880  2.74
   4857.04    9.975  2.74
   4859.78   10.101  2.74
   4862.52   10.113  2.74
   4865.26    9.986  2.74
   4868.00    9.893  2.74
   4870.74    9.857  2.74
   4873.48    9.831  2.74
   4876.22    9.802  2.74
   4878.96    9.792  2.74
   4881.70    9.776  2.74
   4884.44    9.766  2.74
   4887.18    9.789  2.74
   4889.92    9.795  2.74
   4892.66    9.783  2.74
   4895.40    9.767  2.74
   4898.14    9.761  2.74
   4900.88    9.760  2.74
   4903.62    9.763  2.74
   4906.36    9.763  2.74
   4909.10    9.757  2.74
   4911.84    9.751  2.74
   4914.58    9.757  2.74
   4917.32    9.773  2.74
   4920.06    9.782  2.74
   4922.80    9.779  2.74
   4925.54    9.768  2.74
   4928.28    9.765  2.74
   4931.02    9.761  2.74
   4933.76    9.760  2.74
   4936.50    9.762  2.74
   4939.24    9.755  2.74
   4941.98    9.751  2.74
   4944.72    9.748  2.74
   4947.46    9.749  2.74
   4950.20    9.747  2.74
   4952.94    9.747  2.74
   4955.68    9.764  2.74
   4958.42    9.772  2.74
   4961.16    9.771  2.74
   4963.90    9.776  2.74
   4966.64    9.745  2.74
   4969.38    9.744  2.74
   4972.12    9.739  2.74
   4974.86    9.740  2.74
   4977.60    9.747  2.74
   4980.34    9.749  2.74
   4983.08    9.753  2.74
   4985.82    9.757  2.74
   4988.56    9.752  2.74
   4991.30    9.755  2.74
   4994.04    9.754  2.74
   4996.78    9.747  2.74
   4999.52    9.753  2.74
   5002.26    9.754  2.74
   5005.00    9.764  2.74
   5007.74    9.758  2.74
   5010.48    9.737  2.74
   5013.22    9.751  2.74
   5015.96    9.756  2.74
   5018.70    9.754  2.74
   5021.44    9.743  2.74
   5024.18    9.739  2.74
   5026.92    9.743  2.74
   5029.66    9.735  2.74
   5032.40    9.734  2.74
