#G20-15                                                      
#                                                            
#  Heap-Lindler STIS                                         
# wavelength  ABmag  band
   2950.00   12.711  2.74
   2952.74   12.652  2.74
   2955.48   12.650  2.74
   2958.22   12.625  2.74
   2960.96   12.608  2.74
   2963.70   12.612  2.74
   2966.44   12.728  2.74
   2969.18   12.728  2.74
   2971.92   12.684  2.74
   2974.66   12.617  2.74
   2977.40   12.563  2.74
   2980.14   12.612  2.74
   2982.88   12.700  2.74
   2985.62   12.755  2.74
   2988.36   12.644  2.74
   2991.10   12.233  2.74
   2993.84   12.203  2.74
   2996.58   12.602  2.74
   2999.32   12.642  2.74
   3002.06   12.707  2.74
   3004.80   12.640  2.74
   3007.54   12.592  2.74
   3010.28   12.579  2.74
   3013.02   12.576  2.74
   3015.76   12.608  2.74
   3018.50   12.699  2.74
   3021.24   12.717  2.74
   3023.98   12.563  2.74
   3026.72   12.549  2.74
   3029.46   12.511  2.74
   3032.20   12.508  2.74
   3034.94   12.491  2.74
   3037.68   12.517  2.74
   3040.42   12.500  2.74
   3043.16   12.520  2.74
   3045.90   12.496  2.74
   3048.64   12.508  2.74
   3051.38   12.486  2.74
   3054.12   12.516  2.74
   3056.86   12.560  2.74
   3059.60   12.598  2.74
   3062.34   12.587  2.74
   3065.08   12.594  2.74
   3067.82   12.653  2.74
   3070.56   12.573  2.74
   3073.30   12.506  2.74
   3076.04   12.516  2.74
   3078.78   12.517  2.74
   3081.52   12.477  2.74
   3084.26   12.463  2.74
   3087.00   12.521  2.74
   3089.74   12.508  2.74
   3092.48   12.566  2.74
   3095.22   12.616  2.74
   3097.96   12.638  2.74
   3100.70   12.610  2.74
   3103.44   12.495  2.74
   3106.18   12.445  2.74
   3108.92   12.445  2.74
   3111.66   12.456  2.74
   3114.40   12.441  2.74
   3117.14   12.521  2.74
   3119.88   12.538  2.74
   3122.62   12.515  2.74
   3125.36   12.504  2.74
   3128.10   12.551  2.74
   3130.84   12.506  2.74
   3133.58   12.429  2.74
   3136.32   12.399  2.74
   3139.06   12.440  2.74
   3141.80   12.489  2.74
   3144.54   12.519  2.74
   3147.28   12.467  2.74
   3150.02   12.421  2.74
   3152.76   12.442  2.74
   3155.50   12.447  2.74
   3158.24   12.506  2.74
   3160.98   12.529  2.74
   3163.72   12.439  2.74
   3166.46   12.394  2.74
   3169.20   12.370  2.74
   3171.94   12.314  2.74
   3174.68   12.313  2.74
   3177.42   12.382  2.74
   3180.16   12.417  2.74
   3182.90   12.420  2.74
   3185.64   12.423  2.74
   3188.38   12.385  2.74
   3191.12   12.416  2.74
   3193.86   12.402  2.74
   3196.60   12.355  2.74
   3199.34   12.336  2.74
   3202.08   12.316  2.74
   3204.82   12.280  2.74
   3207.56   12.286  2.74
   3210.30   12.368  2.74
   3213.04   12.388  2.74
   3215.78   12.349  2.74
   3218.52   12.311  2.74
   3221.26   12.339  2.74
   3224.00   12.374  2.74
   3226.74   12.386  2.74
   3229.48   12.375  2.74
   3232.22   12.376  2.74
   3234.96   12.430  2.74
   3237.70   12.390  2.74
   3240.44   12.298  2.74
   3243.18   12.284  2.74
   3245.92   12.289  2.74
   3248.66   12.304  2.74
   3251.40   12.318  2.74
   3254.14   12.284  2.74
   3256.88   12.235  2.74
   3259.62   12.187  2.74
   3262.36   12.194  2.74
   3265.10   12.213  2.74
   3267.84   12.216  2.74
   3270.58   12.234  2.74
   3273.32   12.224  2.74
   3276.06   12.237  2.74
   3278.80   12.227  2.74
   3281.54   12.195  2.74
   3284.28   12.206  2.74
   3287.02   12.211  2.74
   3289.76   12.201  2.74
   3292.50   12.148  2.74
   3295.24   12.123  2.74
   3297.98   12.122  2.74
   3300.72   12.127  2.74
   3303.46   12.119  2.74
   3306.20   12.154  2.74
   3308.94   12.212  2.74
   3311.68   12.134  2.74
   3314.42   12.125  2.74
   3317.16   12.150  2.74
   3319.90   12.147  2.74
   3322.64   12.191  2.74
   3325.38   12.162  2.74
   3328.12   12.155  2.74
   3330.86   12.167  2.74
   3333.60   12.133  2.74
   3336.34   12.182  2.74
   3339.08   12.232  2.74
   3341.82   12.166  2.74
   3344.56   12.114  2.74
   3347.30   12.140  2.74
   3350.04   12.153  2.74
   3352.78   12.139  2.74
   3355.52   12.108  2.74
   3358.26   12.131  2.74
   3361.00   12.183  2.74
   3363.74   12.145  2.74
   3366.48   12.112  2.74
   3369.22   12.139  2.74
   3371.96   12.165  2.74
   3374.70   12.141  2.74
   3377.44   12.098  2.74
   3380.18   12.137  2.74
   3382.92   12.166  2.74
   3385.66   12.117  2.74
   3388.40   12.078  2.74
   3391.14   12.086  2.74
   3393.88   12.082  2.74
   3396.62   12.045  2.74
   3399.36   12.026  2.74
   3402.10   12.069  2.74
   3404.84   12.089  2.74
   3407.58   12.104  2.74
   3410.32   12.126  2.74
   3413.06   12.122  2.74
   3415.80   12.091  2.74
   3418.54   12.073  2.74
   3421.28   12.075  2.74
   3424.02   12.075  2.74
   3426.76   12.091  2.74
   3429.50   12.017  2.74
   3432.24   12.016  2.74
   3434.98   12.012  2.74
   3437.72   12.021  2.74
   3440.46   12.108  2.74
   3443.20   12.122  2.74
   3445.94   12.076  2.74
   3448.68   12.029  2.74
   3451.42   12.037  2.74
   3454.16   12.036  2.74
   3456.90   12.019  2.74
   3459.64   12.027  2.74
   3462.38   12.020  2.74
   3465.12   12.018  2.74
   3467.86   11.997  2.74
   3470.60   12.007  2.74
   3473.34   12.038  2.74
   3476.08   12.066  2.74
   3478.82   12.020  2.74
   3481.56   12.001  2.74
   3484.30   12.045  2.74
   3487.04   12.021  2.74
   3489.78   12.032  2.74
   3492.52   12.038  2.74
   3495.26   12.037  2.74
   3498.00   12.021  2.74
   3500.74   11.963  2.74
   3503.48   11.972  2.74
   3506.22   11.980  2.74
   3508.96   11.955  2.74
   3511.70   11.969  2.74
   3514.44   11.967  2.74
   3517.18   11.948  2.74
   3519.92   11.966  2.74
   3522.66   12.029  2.74
   3525.40   12.020  2.74
   3528.14   12.012  2.74
   3530.88   11.975  2.74
   3533.62   11.943  2.74
   3536.36   11.932  2.74
   3539.10   11.913  2.74
   3541.84   11.945  2.74
   3544.58   11.931  2.74
   3547.32   11.911  2.74
   3550.06   11.911  2.74
   3552.80   11.894  2.74
   3555.54   11.915  2.74
   3558.28   11.927  2.74
   3561.02   11.905  2.74
   3563.76   11.915  2.74
   3566.50   11.992  2.74
   3569.24   12.006  2.74
   3571.98   11.975  2.74
   3574.72   11.968  2.74
   3577.46   11.933  2.74
   3580.20   11.957  2.74
   3582.94   11.979  2.74
   3585.68   12.008  2.74
   3588.42   11.995  2.74
   3591.16   11.924  2.74
   3593.90   11.924  2.74
   3596.64   11.904  2.74
   3599.38   11.886  2.74
   3602.12   11.891  2.74
   3604.86   11.909  2.74
   3607.60   11.921  2.74
   3610.34   11.930  2.74
   3613.08   11.914  2.74
   3615.82   11.904  2.74
   3618.56   11.919  2.74
   3621.30   11.916  2.74
   3624.04   11.852  2.74
   3626.78   11.855  2.74
   3629.52   11.863  2.74
   3632.26   11.901  2.74
   3635.00   11.896  2.74
   3637.74   11.845  2.74
   3640.48   11.870  2.74
   3643.22   11.862  2.74
   3645.96   11.879  2.74
   3648.70   11.856  2.74
   3651.44   11.822  2.74
   3654.18   11.801  2.74
   3656.92   11.799  2.74
   3659.66   11.821  2.74
   3662.40   11.794  2.74
   3665.14   11.757  2.74
   3667.88   11.797  2.74
   3670.62   11.796  2.74
   3673.36   11.799  2.74
   3676.10   11.819  2.74
   3678.84   11.829  2.74
   3681.58   11.838  2.74
   3684.32   11.816  2.74
   3687.06   11.816  2.74
   3689.80   11.803  2.74
   3692.54   11.775  2.74
   3695.28   11.753  2.74
   3698.02   11.762  2.74
   3700.76   11.778  2.74
   3703.50   11.795  2.74
   3706.24   11.838  2.74
   3708.98   11.823  2.74
   3711.72   11.780  2.74
   3714.46   11.750  2.74
   3717.20   11.729  2.74
   3719.94   11.784  2.74
   3722.68   11.860  2.74
   3725.42   11.750  2.74
   3728.16   11.695  2.74
   3730.90   11.743  2.74
   3733.64   11.844  2.74
   3736.38   11.911  2.74
   3739.12   11.766  2.74
   3741.86   11.656  2.74
   3744.60   11.727  2.74
   3747.34   11.828  2.74
   3750.08   11.908  2.74
   3752.82   11.826  2.74
   3755.56   11.652  2.74
   3758.30   11.625  2.74
   3761.04   11.607  2.74
   3763.78   11.612  2.74
   3766.52   11.661  2.74
   3769.26   11.750  2.74
   3772.00   11.804  2.74
   3774.74   11.654  2.74
   3777.48   11.551  2.74
   3780.22   11.490  2.74
   3782.96   11.468  2.74
   3785.70   11.483  2.74
   3788.44   11.532  2.74
   3791.18   11.538  2.74
   3793.92   11.622  2.74
   3796.66   11.770  2.74
   3799.40   11.795  2.74
   3802.14   11.634  2.74
   3804.88   11.523  2.74
   3807.62   11.487  2.74
   3810.36   11.454  2.74
   3813.10   11.462  2.74
   3815.84   11.507  2.74
   3818.58   11.501  2.74
   3821.32   11.496  2.74
   3824.06   11.514  2.74
   3826.80   11.589  2.74
   3829.54   11.635  2.74
   3832.28   11.729  2.74
   3835.02   11.894  2.74
   3837.76   11.863  2.74
   3840.50   11.677  2.74
   3843.24   11.512  2.74
   3845.98   11.432  2.74
   3848.72   11.437  2.74
   3851.46   11.409  2.74
   3854.20   11.376  2.74
   3856.94   11.412  2.74
   3859.68   11.438  2.74
   3862.42   11.408  2.74
   3865.16   11.383  2.74
   3867.90   11.372  2.74
   3870.64   11.336  2.74
   3873.38   11.152  2.74
   3876.12   11.413  2.74
   3878.86   11.446  2.74
   3881.60   11.449  2.74
   3884.34   11.531  2.74
   3887.08   11.682  2.74
   3889.82   11.809  2.74
   3892.56   11.644  2.74
   3895.30   11.515  2.74
   3898.04   11.467  2.74
   3900.78   11.455  2.74
   3903.52   11.413  2.74
   3906.26   11.439  2.74
   3909.00   11.384  2.74
   3911.74   11.342  2.74
   3914.48   11.317  2.74
   3917.22   11.358  2.74
   3919.96   11.387  2.74
   3922.70   11.398  2.74
   3925.44   11.414  2.74
   3928.18   11.545  2.74
   3930.92   11.844  2.74
   3933.66   12.245  2.74
   3936.40   12.014  2.74
   3939.14   11.579  2.74
   3941.88   11.427  2.74
   3944.62   11.399  2.74
   3947.36   11.361  2.74
   3950.10   11.351  2.74
   3952.84   11.368  2.74
   3955.58   11.356  2.74
   3958.32   11.395  2.74
   3961.06   11.422  2.74
   3963.80   11.578  2.74
   3966.54   11.884  2.74
   3969.28   12.228  2.74
   3972.02   11.850  2.74
   3974.76   11.563  2.74
   3977.50   11.423  2.74
   3980.24   11.346  2.74
   3982.98   11.328  2.74
   3985.72   11.295  2.74
   3988.46   11.263  2.74
   3991.20   11.289  2.74
   3993.94   11.260  2.74
   3996.68   11.287  2.74
   3999.42   11.266  2.74
   4002.16   11.248  2.74
   4004.90   11.272  2.74
   4007.64   11.270  2.74
   4010.38   11.237  2.74
   4013.12   11.231  2.74
   4015.86   11.223  2.74
   4018.60   11.222  2.74
   4021.34   11.220  2.74
   4024.08   11.212  2.74
   4026.82   11.222  2.74
   4029.56   11.215  2.74
   4032.30   11.263  2.74
   4035.04   11.250  2.74
   4037.78   11.203  2.74
   4040.52   11.202  2.74
   4043.26   11.219  2.74
   4046.00   11.238  2.74
   4048.74   11.209  2.74
   4051.48   11.185  2.74
   4054.22   11.196  2.74
   4056.96   11.211  2.74
   4059.70   11.199  2.74
   4062.44   11.237  2.74
   4065.18   11.226  2.74
   4067.92   11.227  2.74
   4070.66   11.212  2.74
   4073.40   11.226  2.74
   4076.14   11.242  2.74
   4078.88   11.229  2.74
   4081.62   11.221  2.74
   4084.36   11.217  2.74
   4087.10   11.221  2.74
   4089.84   11.222  2.74
   4092.58   11.240  2.74
   4095.32   11.309  2.74
   4098.06   11.404  2.74
   4100.80   11.546  2.74
   4103.54   11.560  2.74
   4106.28   11.363  2.74
   4109.02   11.258  2.74
   4111.76   11.254  2.74
   4114.50   11.207  2.74
   4117.24   11.198  2.74
   4119.98   11.205  2.74
   4122.72   11.183  2.74
   4125.46   11.170  2.74
   4128.20   11.173  2.74
   4130.94   11.174  2.74
   4133.68   11.188  2.74
   4136.42   11.186  2.74
   4139.16   11.136  2.74
   4141.90   11.144  2.74
   4144.64   11.179  2.74
   4147.38   11.157  2.74
   4150.12   11.153  2.74
   4152.86   11.168  2.74
   4155.60   11.160  2.74
   4158.34   11.149  2.74
   4161.08   11.134  2.74
   4163.82   11.136  2.74
   4166.56   11.139  2.74
   4169.30   11.155  2.74
   4172.04   11.168  2.74
   4174.78   11.177  2.74
   4177.52   11.168  2.74
   4180.26   11.145  2.74
   4183.00   11.152  2.74
   4185.74   11.145  2.74
   4188.48   11.156  2.74
   4191.22   11.162  2.74
   4193.96   11.136  2.74
   4196.70   11.145  2.74
   4199.44   11.153  2.74
   4202.18   11.143  2.74
   4204.92   11.143  2.74
   4207.66   11.124  2.74
   4210.40   11.115  2.74
   4213.14   11.122  2.74
   4215.88   11.155  2.74
   4218.62   11.155  2.74
   4221.36   11.136  2.74
   4224.10   11.147  2.74
   4226.84   11.196  2.74
   4229.58   11.153  2.74
   4232.32   11.133  2.74
   4235.06   11.135  2.74
   4237.80   11.132  2.74
   4240.54   11.123  2.74
   4243.28   11.113  2.74
   4246.02   11.133  2.74
   4248.76   11.138  2.74
   4251.50   11.136  2.74
   4254.24   11.089  2.74
   4256.98   11.110  2.74
   4259.72   11.116  2.74
   4262.46   11.095  2.74
   4265.20   11.112  2.74
   4267.94   11.093  2.74
   4270.68   11.134  2.74
   4273.42   11.124  2.74
   4276.16   11.102  2.74
   4278.90   11.099  2.74
   4281.64   11.105  2.74
   4284.38   11.091  2.74
   4287.12   11.120  2.74
   4289.86   11.103  2.74
   4292.60   11.139  2.74
   4295.34   11.128  2.74
   4298.08   11.163  2.74
   4300.82   11.213  2.74
   4303.56   11.202  2.74
   4306.30   11.181  2.74
   4309.04   11.185  2.74
   4311.78   11.158  2.74
   4314.52   11.130  2.74
   4317.26   11.098  2.74
   4320.00   11.096  2.74
   4322.74   11.112  2.74
   4325.48   11.144  2.74
   4328.22   11.137  2.74
   4330.96   11.120  2.74
   4333.70   11.155  2.74
   4336.44   11.240  2.74
   4339.18   11.413  2.74
   4341.92   11.422  2.74
   4344.66   11.237  2.74
   4347.40   11.153  2.74
   4350.14   11.116  2.74
   4352.88   11.120  2.74
   4355.62   11.063  2.74
   4358.36   11.048  2.74
   4361.10   11.042  2.74
   4363.84   11.030  2.74
   4366.58   11.039  2.74
   4369.32   11.028  2.74
   4372.06   11.058  2.74
   4374.80   11.059  2.74
   4377.54   11.032  2.74
   4380.28   11.027  2.74
   4383.02   11.063  2.74
   4385.76   11.060  2.74
   4388.50   11.035  2.74
   4391.24   11.032  2.74
   4393.98   11.033  2.74
   4396.72   11.015  2.74
   4399.46   11.035  2.74
   4402.20   11.040  2.74
   4404.94   11.040  2.74
   4407.68   11.029  2.74
   4410.42   10.994  2.74
   4413.16   11.010  2.74
   4415.90   11.036  2.74
   4418.64   11.030  2.74
   4421.38   11.013  2.74
   4424.12   11.007  2.74
   4426.86   11.034  2.74
   4429.60   11.019  2.74
   4432.34   11.011  2.74
   4435.08   11.026  2.74
   4437.82   10.996  2.74
   4440.56   10.998  2.74
   4443.30   11.002  2.74
   4446.04   10.986  2.74
   4448.78   10.995  2.74
   4451.52   10.990  2.74
   4454.26   11.003  2.74
   4457.00   11.009  2.74
   4459.74   10.983  2.74
   4462.48   10.999  2.74
   4465.22   10.996  2.74
   4467.96   10.998  2.74
   4470.70   10.990  2.74
   4473.44   10.983  2.74
   4476.18   10.974  2.74
   4478.92   10.975  2.74
   4481.66   10.989  2.74
   4484.40   10.967  2.74
   4487.14   10.955  2.74
   4489.88   10.965  2.74
   4492.62   10.968  2.74
   4495.36   10.981  2.74
   4498.10   10.969  2.74
   4500.84   10.958  2.74
   4503.58   10.952  2.74
   4506.32   10.957  2.74
   4509.06   10.965  2.74
   4511.80   10.945  2.74
   4514.54   10.950  2.74
   4517.28   10.957  2.74
   4520.02   10.950  2.74
   4522.76   10.966  2.74
   4525.50   10.956  2.74
   4528.24   10.969  2.74
   4530.98   10.974  2.74
   4533.72   10.982  2.74
   4536.46   10.967  2.74
   4539.20   10.947  2.74
   4541.94   10.936  2.74
   4544.68   10.935  2.74
   4547.42   10.948  2.74
   4550.16   10.967  2.74
   4552.90   10.956  2.74
   4555.64   10.954  2.74
   4558.38   10.940  2.74
   4561.12   10.925  2.74
   4563.86   10.925  2.74
   4566.60   10.931  2.74
   4569.34   10.923  2.74
   4572.08   10.927  2.74
   4574.82   10.920  2.74
   4577.56   10.929  2.74
   4580.30   10.925  2.74
   4583.04   10.920  2.74
   4585.78   10.927  2.74
   4588.52   10.920  2.74
   4591.26   10.922  2.74
   4594.00   10.909  2.74
   4596.74   10.910  2.74
   4599.48   10.908  2.74
   4602.22   10.908  2.74
   4604.96   10.910  2.74
   4607.70   10.899  2.74
   4610.44   10.892  2.74
   4613.18   10.898  2.74
   4615.92   10.897  2.74
   4618.66   10.890  2.74
   4621.40   10.901  2.74
   4624.14   10.889  2.74
   4626.88   10.888  2.74
   4629.62   10.887  2.74
   4632.36   10.881  2.74
   4635.10   10.883  2.74
   4637.84   10.889  2.74
   4640.58   10.881  2.74
   4643.32   10.881  2.74
   4646.06   10.885  2.74
   4648.80   10.882  2.74
   4651.54   10.874  2.74
   4654.28   10.882  2.74
   4657.02   10.890  2.74
   4659.76   10.884  2.74
   4662.50   10.866  2.74
   4665.24   10.872  2.74
   4667.98   10.883  2.74
   4670.72   10.875  2.74
   4673.46   10.872  2.74
   4676.20   10.869  2.74
   4678.94   10.875  2.74
   4681.68   10.865  2.74
   4684.42   10.857  2.74
   4687.16   10.861  2.74
   4689.90   10.856  2.74
   4692.64   10.848  2.74
   4695.38   10.860  2.74
   4698.12   10.873  2.74
   4700.86   10.874  2.74
   4703.60   10.868  2.74
   4706.34   10.862  2.74
   4709.08   10.868  2.74
   4711.82   10.852  2.74
   4714.56   10.846  2.74
   4717.30   10.851  2.74
   4720.04   10.856  2.74
   4722.78   10.855  2.74
   4725.52   10.855  2.74
   4728.26   10.850  2.74
   4731.00   10.830  2.74
   4733.74   10.840  2.74
   4736.48   10.849  2.74
   4739.22   10.853  2.74
   4741.96   10.843  2.74
   4744.70   10.845  2.74
   4747.44   10.842  2.74
   4750.18   10.842  2.74
   4752.92   10.853  2.74
   4755.66   10.838  2.74
   4758.40   10.852  2.74
   4761.14   10.866  2.74
   4763.88   10.865  2.74
   4766.62   10.835  2.74
   4769.36   10.825  2.74
   4772.10   10.830  2.74
   4774.84   10.843  2.74
   4777.58   10.842  2.74
   4780.32   10.829  2.74
   4783.06   10.845  2.74
   4785.80   10.839  2.74
   4788.54   10.814  2.74
   4791.28   10.824  2.74
   4794.02   10.814  2.74
   4796.76   10.803  2.74
   4799.50   10.818  2.74
   4802.24   10.820  2.74
   4804.98   10.829  2.74
   4807.72   10.832  2.74
   4810.46   10.820  2.74
   4813.20   10.806  2.74
   4815.94   10.811  2.74
   4818.68   10.807  2.74
   4821.42   10.818  2.74
   4824.16   10.820  2.74
   4826.90   10.810  2.74
   4829.64   10.817  2.74
   4832.38   10.810  2.74
   4835.12   10.814  2.74
   4837.86   10.820  2.74
   4840.60   10.817  2.74
   4843.34   10.828  2.74
   4846.08   10.828  2.74
   4848.82   10.838  2.74
   4851.56   10.859  2.74
   4854.30   10.902  2.74
   4857.04   10.986  2.74
   4859.78   11.149  2.74
   4862.52   11.168  2.74
   4865.26   11.006  2.74
   4868.00   10.913  2.74
   4870.74   10.894  2.74
   4873.48   10.861  2.74
   4876.22   10.839  2.74
   4878.96   10.839  2.74
   4881.70   10.813  2.74
   4884.44   10.808  2.74
   4887.18   10.789  2.74
   4889.92   10.811  2.74
   4892.66   10.823  2.74
   4895.40   10.795  2.74
   4898.14   10.793  2.74
   4900.88   10.792  2.74
   4903.62   10.786  2.74
   4906.36   10.792  2.74
   4909.10   10.780  2.74
   4911.84   10.771  2.74
   4914.58   10.778  2.74
   4917.32   10.793  2.74
   4920.06   10.809  2.74
   4922.80   10.803  2.74
   4925.54   10.785  2.74
   4928.28   10.768  2.74
   4931.02   10.771  2.74
   4933.76   10.786  2.74
   4936.50   10.778  2.74
   4939.24   10.771  2.74
   4941.98   10.763  2.74
   4944.72   10.758  2.74
   4947.46   10.759  2.74
   4950.20   10.750  2.74
   4952.94   10.750  2.74
   4955.68   10.780  2.74
   4958.42   10.778  2.74
   4961.16   10.763  2.74
   4963.90   10.770  2.74
   4966.64   10.787  2.74
   4969.38   10.768  2.74
   4972.12   10.742  2.74
   4974.86   10.754  2.74
   4977.60   10.758  2.74
   4980.34   10.759  2.74
   4983.08   10.762  2.74
   4985.82   10.757  2.74
   4988.56   10.757  2.74
   4991.30   10.758  2.74
   4994.04   10.749  2.74
   4996.78   10.748  2.74
   4999.52   10.760  2.74
   5002.26   10.763  2.74
   5005.00   10.763  2.74
   5007.74   10.758  2.74
   5010.48   10.759  2.74
   5013.22   10.745  2.74
   5015.96   10.740  2.74
   5018.70   10.759  2.74
   5021.44   10.755  2.74
   5024.18   10.743  2.74
   5026.92   10.736  2.74
   5029.66   10.724  2.74
   5032.40   10.722  2.74
