#HD142703                                                    
#                                                            
#  Heap-Lindler STIS                                         
# wavelength  ABmag  band
   2950.00    7.801  2.74
   2952.74    7.777  2.74
   2955.48    7.749  2.74
   2958.22    7.731  2.74
   2960.96    7.734  2.74
   2963.70    7.776  2.74
   2966.44    7.818  2.74
   2969.18    7.809  2.74
   2971.92    7.790  2.74
   2974.66    7.726  2.74
   2977.40    7.717  2.74
   2980.14    7.754  2.74
   2982.88    7.776  2.74
   2985.62    7.825  2.74
   2988.36    7.728  2.74
   2991.10    7.683  2.74
   2993.84    7.701  2.74
   2996.58    7.714  2.74
   2999.32    7.747  2.74
   3002.06    7.774  2.74
   3004.80    7.742  2.74
   3007.54    7.719  2.74
   3010.28    7.702  2.74
   3013.02    7.688  2.74
   3015.76    7.715  2.74
   3018.50    7.739  2.74
   3021.24    7.726  2.74
   3023.98    7.702  2.74
   3026.72    7.681  2.74
   3029.46    7.680  2.74
   3032.20    7.671  2.74
   3034.94    7.666  2.74
   3037.68    7.674  2.74
   3040.42    7.671  2.74
   3043.16    7.662  2.74
   3045.90    7.666  2.74
   3048.64    7.674  2.74
   3051.38    7.665  2.74
   3054.12    7.670  2.74
   3056.86    7.710  2.74
   3059.60    7.703  2.74
   3062.34    7.667  2.74
   3065.08    7.683  2.74
   3067.82    7.679  2.74
   3070.56    7.667  2.74
   3073.30    7.689  2.74
   3076.04    7.686  2.74
   3078.78    7.660  2.74
   3081.52    7.642  2.74
   3084.26    7.627  2.74
   3087.00    7.644  2.74
   3089.74    7.665  2.74
   3092.48    7.669  2.74
   3095.22    7.661  2.74
   3097.96    7.667  2.74
   3100.70    7.684  2.74
   3103.44    7.664  2.74
   3106.18    7.624  2.74
   3108.92    7.595  2.74
   3111.66    7.603  2.74
   3114.40    7.608  2.74
   3117.14    7.625  2.74
   3119.88    7.659  2.74
   3122.62    7.644  2.74
   3125.36    7.630  2.74
   3128.10    7.626  2.74
   3130.84    7.630  2.74
   3133.58    7.632  2.74
   3136.32    7.605  2.74
   3139.06    7.593  2.74
   3141.80    7.596  2.74
   3144.54    7.598  2.74
   3147.28    7.601  2.74
   3150.02    7.585  2.74
   3152.76    7.585  2.74
   3155.50    7.606  2.74
   3158.24    7.629  2.74
   3160.98    7.653  2.74
   3163.72    7.625  2.74
   3166.46    7.590  2.74
   3169.20    7.578  2.74
   3171.94    7.553  2.74
   3174.68    7.546  2.74
   3177.42    7.581  2.74
   3180.16    7.628  2.74
   3182.90    7.621  2.74
   3185.64    7.591  2.74
   3188.38    7.586  2.74
   3191.12    7.601  2.74
   3193.86    7.614  2.74
   3196.60    7.595  2.74
   3199.34    7.558  2.74
   3202.08    7.536  2.74
   3204.82    7.530  2.74
   3207.56    7.546  2.74
   3210.30    7.580  2.74
   3213.04    7.594  2.74
   3215.78    7.597  2.74
   3218.52    7.582  2.74
   3221.26    7.559  2.74
   3224.00    7.556  2.74
   3226.74    7.584  2.74
   3229.48    7.605  2.74
   3232.22    7.592  2.74
   3234.96    7.592  2.74
   3237.70    7.592  2.74
   3240.44    7.569  2.74
   3243.18    7.538  2.74
   3245.92    7.517  2.74
   3248.66    7.529  2.74
   3251.40    7.554  2.74
   3254.14    7.547  2.74
   3256.88    7.516  2.74
   3259.62    7.500  2.74
   3262.36    7.491  2.74
   3265.10    7.484  2.74
   3267.84    7.482  2.74
   3270.58    7.493  2.74
   3273.32    7.501  2.74
   3276.06    7.508  2.74
   3278.80    7.513  2.74
   3281.54    7.493  2.74
   3284.28    7.480  2.74
   3287.02    7.477  2.74
   3289.76    7.473  2.74
   3292.50    7.461  2.74
   3295.24    7.454  2.74
   3297.98    7.447  2.74
   3300.72    7.442  2.74
   3303.46    7.454  2.74
   3306.20    7.459  2.74
   3308.94    7.460  2.74
   3311.68    7.449  2.74
   3314.42    7.446  2.74
   3317.16    7.458  2.74
   3319.90    7.469  2.74
   3322.64    7.476  2.74
   3325.38    7.485  2.74
   3328.12    7.472  2.74
   3330.86    7.454  2.74
   3333.60    7.453  2.74
   3336.34    7.467  2.74
   3339.08    7.482  2.74
   3341.82    7.489  2.74
   3344.56    7.463  2.74
   3347.30    7.477  2.74
   3350.04    7.498  2.74
   3352.78    7.453  2.74
   3355.52    7.420  2.74
   3358.26    7.430  2.74
   3361.00    7.465  2.74
   3363.74    7.443  2.74
   3366.48    7.432  2.74
   3369.22    7.450  2.74
   3371.96    7.465  2.74
   3374.70    7.448  2.74
   3377.44    7.423  2.74
   3380.18    7.456  2.74
   3382.92    7.458  2.74
   3385.66    7.428  2.74
   3388.40    7.422  2.74
   3391.14    7.442  2.74
   3393.88    7.444  2.74
   3396.62    7.411  2.74
   3399.36    7.379  2.74
   3402.10    7.389  2.74
   3404.84    7.402  2.74
   3407.58    7.400  2.74
   3410.32    7.403  2.74
   3413.06    7.399  2.74
   3415.80    7.389  2.74
   3418.54    7.385  2.74
   3421.28    7.395  2.74
   3424.02    7.393  2.74
   3426.76    7.377  2.74
   3429.50    7.365  2.74
   3432.24    7.360  2.74
   3434.98    7.368  2.74
   3437.72    7.380  2.74
   3440.46    7.409  2.74
   3443.20    7.428  2.74
   3445.94    7.403  2.74
   3448.68    7.365  2.74
   3451.42    7.359  2.74
   3454.16    7.363  2.74
   3456.90    7.360  2.74
   3459.64    7.384  2.74
   3462.38    7.395  2.74
   3465.12    7.367  2.74
   3467.86    7.348  2.74
   3470.60    7.352  2.74
   3473.34    7.373  2.74
   3476.08    7.393  2.74
   3478.82    7.371  2.74
   3481.56    7.349  2.74
   3484.30    7.346  2.74
   3487.04    7.347  2.74
   3489.78    7.366  2.74
   3492.52    7.382  2.74
   3495.26    7.370  2.74
   3498.00    7.359  2.74
   3500.74    7.339  2.74
   3503.48    7.337  2.74
   3506.22    7.342  2.74
   3508.96    7.336  2.74
   3511.70    7.347  2.74
   3514.44    7.345  2.74
   3517.18    7.342  2.74
   3519.92    7.328  2.74
   3522.66    7.333  2.74
   3525.40    7.345  2.74
   3528.14    7.333  2.74
   3530.88    7.314  2.74
   3533.62    7.311  2.74
   3536.36    7.302  2.74
   3539.10    7.302  2.74
   3541.84    7.297  2.74
   3544.58    7.289  2.74
   3547.32    7.286  2.74
   3550.06    7.279  2.74
   3552.80    7.279  2.74
   3555.54    7.292  2.74
   3558.28    7.300  2.74
   3561.02    7.287  2.74
   3563.76    7.281  2.74
   3566.50    7.308  2.74
   3569.24    7.322  2.74
   3571.98    7.327  2.74
   3574.72    7.306  2.74
   3577.46    7.301  2.74
   3580.20    7.301  2.74
   3582.94    7.305  2.74
   3585.68    7.314  2.74
   3588.42    7.321  2.74
   3591.16    7.288  2.74
   3593.90    7.272  2.74
   3596.64    7.274  2.74
   3599.38    7.267  2.74
   3602.12    7.263  2.74
   3604.86    7.275  2.74
   3607.60    7.282  2.74
   3610.34    7.289  2.74
   3613.08    7.281  2.74
   3615.82    7.275  2.74
   3618.56    7.278  2.74
   3621.30    7.274  2.74
   3624.04    7.249  2.74
   3626.78    7.241  2.74
   3629.52    7.257  2.74
   3632.26    7.281  2.74
   3635.00    7.249  2.74
   3637.74    7.242  2.74
   3640.48    7.242  2.74
   3643.22    7.241  2.74
   3645.96    7.242  2.74
   3648.70    7.248  2.74
   3651.44    7.240  2.74
   3654.18    7.225  2.74
   3656.92    7.213  2.74
   3659.66    7.219  2.74
   3662.40    7.214  2.74
   3665.14    7.210  2.74
   3667.88    7.211  2.74
   3670.62    7.208  2.74
   3673.36    7.207  2.74
   3676.10    7.213  2.74
   3678.84    7.225  2.74
   3681.58    7.232  2.74
   3684.32    7.233  2.74
   3687.06    7.240  2.74
   3689.80    7.218  2.74
   3692.54    7.201  2.74
   3695.28    7.189  2.74
   3698.02    7.187  2.74
   3700.76    7.162  2.74
   3703.50    7.206  2.74
   3706.24    7.222  2.74
   3708.98    7.156  2.74
   3711.72    7.202  2.74
   3714.46    7.157  2.74
   3717.20    7.032  2.74
   3719.94    7.106  2.74
   3722.68    7.209  2.74
   3725.42    7.068  2.74
   3728.16    6.947  2.74
   3730.90    6.988  2.74
   3733.64    7.174  2.74
   3736.38    7.215  2.74
   3739.12    6.989  2.74
   3741.86    6.855  2.74
   3744.60    6.881  2.74
   3747.34    7.048  2.74
   3750.08    7.221  2.74
   3752.82    7.108  2.74
   3755.56    6.882  2.74
   3758.30    6.796  2.74
   3761.04    6.777  2.74
   3763.78    6.789  2.74
   3766.52    6.890  2.74
   3769.26    7.085  2.74
   3772.00    7.162  2.74
   3774.74    6.937  2.74
   3777.48    6.735  2.74
   3780.22    6.616  2.74
   3782.96    6.568  2.74
   3785.70    6.580  2.74
   3788.44    6.619  2.74
   3791.18    6.682  2.74
   3793.92    6.839  2.74
   3796.66    7.081  2.74
   3799.40    7.145  2.74
   3802.14    6.905  2.74
   3804.88    6.712  2.74
   3807.62    6.604  2.74
   3810.36    6.535  2.74
   3813.10    6.509  2.74
   3815.84    6.500  2.74
   3818.58    6.490  2.74
   3821.32    6.514  2.74
   3824.06    6.558  2.74
   3826.80    6.650  2.74
   3829.54    6.749  2.74
   3832.28    6.928  2.74
   3835.02    7.153  2.74
   3837.76    7.109  2.74
   3840.50    6.871  2.74
   3843.24    6.671  2.74
   3845.98    6.553  2.74
   3848.72    6.489  2.74
   3851.46    6.446  2.74
   3854.20    6.417  2.74
   3856.94    6.419  2.74
   3859.68    6.412  2.74
   3862.42    6.390  2.74
   3865.16    6.377  2.74
   3867.90    6.373  2.74
   3870.64    6.387  2.74
   3873.38    6.428  2.74
   3876.12    6.465  2.74
   3878.86    6.539  2.74
   3881.60    6.604  2.74
   3884.34    6.731  2.74
   3887.08    6.974  2.74
   3889.82    7.118  2.74
   3892.56    6.930  2.74
   3895.30    6.728  2.74
   3898.04    6.612  2.74
   3900.78    6.548  2.74
   3903.52    6.484  2.74
   3906.26    6.436  2.74
   3909.00    6.379  2.74
   3911.74    6.341  2.74
   3914.48    6.338  2.74
   3917.22    6.321  2.74
   3919.96    6.316  2.74
   3922.70    6.315  2.74
   3925.44    6.306  2.74
   3928.18    6.332  2.74
   3930.92    6.431  2.74
   3933.66    6.593  2.74
   3936.40    6.474  2.74
   3939.14    6.333  2.74
   3941.88    6.303  2.74
   3944.62    6.319  2.74
   3947.36    6.327  2.74
   3950.10    6.348  2.74
   3952.84    6.368  2.74
   3955.58    6.403  2.74
   3958.32    6.456  2.74
   3961.06    6.524  2.74
   3963.80    6.633  2.74
   3966.54    6.847  2.74
   3969.28    7.140  2.74
   3972.02    7.017  2.74
   3974.76    6.781  2.74
   3977.50    6.602  2.74
   3980.24    6.492  2.74
   3982.98    6.433  2.74
   3985.72    6.377  2.74
   3988.46    6.341  2.74
   3991.20    6.310  2.74
   3993.94    6.287  2.74
   3996.68    6.273  2.74
   3999.42    6.260  2.74
   4002.16    6.248  2.74
   4004.90    6.255  2.74
   4007.64    6.246  2.74
   4010.38    6.223  2.74
   4013.12    6.222  2.74
   4015.86    6.213  2.74
   4018.60    6.205  2.74
   4021.34    6.202  2.74
   4024.08    6.207  2.74
   4026.82    6.206  2.74
   4029.56    6.216  2.74
   4032.30    6.220  2.74
   4035.04    6.206  2.74
   4037.78    6.201  2.74
   4040.52    6.189  2.74
   4043.26    6.199  2.74
   4046.00    6.224  2.74
   4048.74    6.206  2.74
   4051.48    6.188  2.74
   4054.22    6.202  2.74
   4056.96    6.212  2.74
   4059.70    6.210  2.74
   4062.44    6.225  2.74
   4065.18    6.241  2.74
   4067.92    6.245  2.74
   4070.66    6.254  2.74
   4073.40    6.299  2.74
   4076.14    6.302  2.74
   4078.88    6.306  2.74
   4081.62    6.305  2.74
   4084.36    6.322  2.74
   4087.10    6.350  2.74
   4089.84    6.397  2.74
   4092.58    6.454  2.74
   4095.32    6.554  2.74
   4098.06    6.714  2.74
   4100.80    6.940  2.74
   4103.54    6.946  2.74
   4106.28    6.716  2.74
   4109.02    6.566  2.74
   4111.76    6.469  2.74
   4114.50    6.396  2.74
   4117.24    6.350  2.74
   4119.98    6.319  2.74
   4122.72    6.291  2.74
   4125.46    6.264  2.74
   4128.20    6.256  2.74
   4130.94    6.255  2.74
   4133.68    6.241  2.74
   4136.42    6.222  2.74
   4139.16    6.207  2.74
   4141.90    6.207  2.74
   4144.64    6.215  2.74
   4147.38    6.202  2.74
   4150.12    6.194  2.74
   4152.86    6.194  2.74
   4155.60    6.195  2.74
   4158.34    6.195  2.74
   4161.08    6.189  2.74
   4163.82    6.184  2.74
   4166.56    6.183  2.74
   4169.30    6.183  2.74
   4172.04    6.193  2.74
   4174.78    6.198  2.74
   4177.52    6.194  2.74
   4180.26    6.189  2.74
   4183.00    6.187  2.74
   4185.74    6.189  2.74
   4188.48    6.183  2.74
   4191.22    6.178  2.74
   4193.96    6.177  2.74
   4196.70    6.183  2.74
   4199.44    6.193  2.74
   4202.18    6.194  2.74
   4204.92    6.176  2.74
   4207.66    6.165  2.74
   4210.40    6.172  2.74
   4213.14    6.181  2.74
   4215.88    6.194  2.74
   4218.62    6.179  2.74
   4221.36    6.181  2.74
   4224.10    6.189  2.74
   4226.84    6.208  2.74
   4229.58    6.192  2.74
   4232.32    6.193  2.74
   4235.06    6.192  2.74
   4237.80    6.182  2.74
   4240.54    6.171  2.74
   4243.28    6.174  2.74
   4246.02    6.185  2.74
   4248.76    6.196  2.74
   4251.50    6.191  2.74
   4254.24    6.185  2.74
   4256.98    6.190  2.74
   4259.72    6.185  2.74
   4262.46    6.174  2.74
   4265.20    6.171  2.74
   4267.94    6.174  2.74
   4270.68    6.203  2.74
   4273.42    6.204  2.74
   4276.16    6.183  2.74
   4278.90    6.170  2.74
   4281.64    6.180  2.74
   4284.38    6.183  2.74
   4287.12    6.195  2.74
   4289.86    6.211  2.74
   4292.60    6.215  2.74
   4295.34    6.212  2.74
   4298.08    6.236  2.74
   4300.82    6.248  2.74
   4303.56    6.244  2.74
   4306.30    6.240  2.74
   4309.04    6.247  2.74
   4311.78    6.246  2.74
   4314.52    6.258  2.74
   4317.26    6.256  2.74
   4320.00    6.273  2.74
   4322.74    6.294  2.74
   4325.48    6.340  2.74
   4328.22    6.365  2.74
   4330.96    6.409  2.74
   4333.70    6.493  2.74
   4336.44    6.648  2.74
   4339.18    6.862  2.74
   4341.92    6.875  2.74
   4344.66    6.664  2.74
   4347.40    6.511  2.74
   4350.14    6.424  2.74
   4352.88    6.367  2.74
   4355.62    6.315  2.74
   4358.36    6.283  2.74
   4361.10    6.248  2.74
   4363.84    6.226  2.74
   4366.58    6.228  2.74
   4369.32    6.221  2.74
   4372.06    6.211  2.74
   4374.80    6.198  2.74
   4377.54    6.183  2.74
   4380.28    6.179  2.74
   4383.02    6.198  2.74
   4385.76    6.190  2.74
   4388.50    6.166  2.74
   4391.24    6.161  2.74
   4393.98    6.171  2.74
   4396.72    6.171  2.74
   4399.46    6.167  2.74
   4402.20    6.166  2.74
   4404.94    6.175  2.74
   4407.68    6.139  2.74
   4410.42    6.148  2.74
   4413.16    6.158  2.74
   4415.90    6.170  2.74
   4418.64    6.164  2.74
   4421.38    6.152  2.74
   4424.12    6.149  2.74
   4426.86    6.150  2.74
   4429.60    6.145  2.74
   4432.34    6.146  2.74
   4435.08    6.144  2.74
   4437.82    6.140  2.74
   4440.56    6.146  2.74
   4443.30    6.160  2.74
   4446.04    6.147  2.74
   4448.78    6.148  2.74
   4451.52    6.145  2.74
   4454.26    6.144  2.74
   4457.00    6.138  2.74
   4459.74    6.136  2.74
   4462.48    6.138  2.74
   4465.22    6.152  2.74
   4467.96    6.160  2.74
   4470.70    6.149  2.74
   4473.44    6.139  2.74
   4476.18    6.140  2.74
   4478.92    6.150  2.74
   4481.66    6.155  2.74
   4484.40    6.138  2.74
   4487.14    6.136  2.74
   4489.88    6.136  2.74
   4492.62    6.143  2.74
   4495.36    6.144  2.74
   4498.10    6.142  2.74
   4500.84    6.151  2.74
   4503.58    6.143  2.74
   4506.32    6.139  2.74
   4509.06    6.133  2.74
   4511.80    6.128  2.74
   4514.54    6.134  2.74
   4517.28    6.143  2.74
   4520.02    6.152  2.74
   4522.76    6.153  2.74
   4525.50    6.145  2.74
   4528.24    6.145  2.74
   4530.98    6.150  2.74
   4533.72    6.153  2.74
   4536.46    6.136  2.74
   4539.20    6.131  2.74
   4541.94    6.132  2.74
   4544.68    6.134  2.74
   4547.42    6.152  2.74
   4550.16    6.162  2.74
   4552.90    6.161  2.74
   4555.64    6.155  2.74
   4558.38    6.145  2.74
   4561.12    6.141  2.74
   4563.86    6.138  2.74
   4566.60    6.133  2.74
   4569.34    6.139  2.74
   4572.08    6.144  2.74
   4574.82    6.134  2.74
   4577.56    6.127  2.74
   4580.30    6.131  2.74
   4583.04    6.143  2.74
   4585.78    6.142  2.74
   4588.52    6.139  2.74
   4591.26    6.136  2.74
   4594.00    6.137  2.74
   4596.74    6.128  2.74
   4599.48    6.121  2.74
   4602.22    6.120  2.74
   4604.96    6.121  2.74
   4607.70    6.121  2.74
   4610.44    6.121  2.74
   4613.18    6.123  2.74
   4615.92    6.122  2.74
   4618.66    6.132  2.74
   4621.40    6.134  2.74
   4624.14    6.127  2.74
   4626.88    6.125  2.74
   4629.62    6.126  2.74
   4632.36    6.127  2.74
   4635.10    6.122  2.74
   4637.84    6.120  2.74
   4640.58    6.122  2.74
   4643.32    6.119  2.74
   4646.06    6.119  2.74
   4648.80    6.116  2.74
   4651.54    6.121  2.74
   4654.28    6.120  2.74
   4657.02    6.118  2.74
   4659.76    6.118  2.74
   4662.50    6.120  2.74
   4665.24    6.123  2.74
   4667.98    6.124  2.74
   4670.72    6.122  2.74
   4673.46    6.120  2.74
   4676.20    6.118  2.74
   4678.94    6.115  2.74
   4681.68    6.120  2.74
   4684.42    6.117  2.74
   4687.16    6.117  2.74
   4689.90    6.116  2.74
   4692.64    6.119  2.74
   4695.38    6.115  2.74
   4698.12    6.117  2.74
   4700.86    6.123  2.74
   4703.60    6.123  2.74
   4706.34    6.113  2.74
   4709.08    6.137  2.74
   4711.82    6.126  2.74
   4714.56    6.113  2.74
   4717.30    6.112  2.74
   4720.04    6.108  2.74
   4722.78    6.104  2.74
   4725.52    6.106  2.74
   4728.26    6.103  2.74
   4731.00    6.106  2.74
   4733.74    6.111  2.74
   4736.48    6.122  2.74
   4739.22    6.120  2.74
   4741.96    6.115  2.74
   4744.70    6.114  2.74
   4747.44    6.114  2.74
   4750.18    6.111  2.74
   4752.92    6.115  2.74
   4755.66    6.119  2.74
   4758.40    6.119  2.74
   4761.14    6.131  2.74
   4763.88    6.132  2.74
   4766.62    6.128  2.74
   4769.36    6.128  2.74
   4772.10    6.134  2.74
   4774.84    6.130  2.74
   4777.58    6.123  2.74
   4780.32    6.121  2.74
   4783.06    6.120  2.74
   4785.80    6.122  2.74
   4788.54    6.120  2.74
   4791.28    6.120  2.74
   4794.02    6.121  2.74
   4796.76    6.122  2.74
   4799.50    6.129  2.74
   4802.24    6.132  2.74
   4804.98    6.133  2.74
   4807.72    6.132  2.74
   4810.46    6.129  2.74
   4813.20    6.134  2.74
   4815.94    6.134  2.74
   4818.68    6.136  2.74
   4821.42    6.144  2.74
   4824.16    6.152  2.74
   4826.90    6.157  2.74
   4829.64    6.158  2.74
   4832.38    6.164  2.74
   4835.12    6.181  2.74
   4837.86    6.191  2.74
   4840.60    6.201  2.74
   4843.34    6.226  2.74
   4846.08    6.253  2.74
   4848.82    6.284  2.74
   4851.56    6.330  2.74
   4854.30    6.410  2.74
   4857.04    6.544  2.74
   4859.78    6.720  2.74
   4862.52    6.729  2.74
   4865.26    6.568  2.74
   4868.00    6.431  2.74
   4870.74    6.351  2.74
   4873.48    6.295  2.74
   4876.22    6.255  2.74
   4878.96    6.227  2.74
   4881.70    6.206  2.74
   4884.44    6.190  2.74
   4887.18    6.178  2.74
   4889.92    6.176  2.74
   4892.66    6.169  2.74
   4895.40    6.152  2.74
   4898.14    6.141  2.74
   4900.88    6.139  2.74
   4903.62    6.134  2.74
   4906.36    6.124  2.74
   4909.10    6.123  2.74
   4911.84    6.113  2.74
   4914.58    6.113  2.74
   4917.32    6.130  2.74
   4920.06    6.139  2.74
   4922.80    6.142  2.74
   4925.54    6.132  2.74
   4928.28    6.119  2.74
   4931.02    6.120  2.74
   4933.76    6.119  2.74
   4936.50    6.115  2.74
   4939.24    6.112  2.74
   4941.98    6.107  2.74
   4944.72    6.105  2.74
   4947.46    6.104  2.74
   4950.20    6.103  2.74
   4952.94    6.108  2.74
   4955.68    6.115  2.74
   4958.42    6.120  2.74
   4961.16    6.114  2.74
   4963.90    6.107  2.74
   4966.64    6.106  2.74
   4969.38    6.105  2.74
   4972.12    6.103  2.74
   4974.86    6.105  2.74
   4977.60    6.105  2.74
   4980.34    6.106  2.74
   4983.08    6.113  2.74
   4985.82    6.111  2.74
   4988.56    6.105  2.74
   4991.30    6.102  2.74
   4994.04    6.101  2.74
   4996.78    6.102  2.74
   4999.52    6.110  2.74
   5002.26    6.111  2.74
   5005.00    6.111  2.74
   5007.74    6.114  2.74
   5010.48    6.114  2.74
   5013.22    6.114  2.74
   5015.96    6.122  2.74
   5018.70    6.128  2.74
   5021.44    6.115  2.74
   5024.18    6.105  2.74
   5026.92    6.105  2.74
   5029.66    6.105  2.74
   5032.40    6.102  2.74
