#HD161770                                                    
#                                                            
#  Heap-LindlerSTIS                                          
# wavelength  ABmag  band
   2950.00   12.130  2.74
   2952.74   12.082  2.74
   2955.48   12.050  2.74
   2958.22   12.025  2.74
   2960.96   12.014  2.74
   2963.70   12.041  2.74
   2966.44   12.168  2.74
   2969.18   12.165  2.74
   2971.92   12.112  2.74
   2974.66   11.994  2.74
   2977.40   11.959  2.74
   2980.14   12.036  2.74
   2982.88   12.142  2.74
   2985.62   12.176  2.74
   2988.36   12.039  2.74
   2991.10   11.942  2.74
   2993.84   11.964  2.74
   2996.58   11.959  2.74
   2999.32   12.003  2.74
   3002.06   12.093  2.74
   3004.80   12.023  2.74
   3007.54   11.989  2.74
   3010.28   11.950  2.74
   3013.02   11.930  2.74
   3015.76   11.980  2.74
   3018.50   12.043  2.74
   3021.24   12.083  2.74
   3023.98   11.959  2.74
   3026.72   11.905  2.74
   3029.46   11.889  2.74
   3032.20   11.881  2.74
   3034.94   11.865  2.74
   3037.68   11.887  2.74
   3040.42   11.886  2.74
   3043.16   11.900  2.74
   3045.90   11.888  2.74
   3048.64   11.886  2.74
   3051.38   11.823  2.74
   3054.12   11.856  2.74
   3056.86   11.915  2.74
   3059.60   11.971  2.74
   3062.34   11.926  2.74
   3065.08   12.030  2.74
   3067.82   12.061  2.74
   3070.56   12.026  2.74
   3073.30   11.979  2.74
   3076.04   11.915  2.74
   3078.78   11.912  2.74
   3081.52   11.879  2.74
   3084.26   11.901  2.74
   3087.00   11.875  2.74
   3089.74   11.933  2.74
   3092.48   12.027  2.74
   3095.22   12.054  2.74
   3097.96   11.980  2.74
   3100.70   12.014  2.74
   3103.44   11.976  2.74
   3106.18   11.876  2.74
   3108.92   11.804  2.74
   3111.66   11.792  2.74
   3114.40   11.792  2.74
   3117.14   11.812  2.74
   3119.88   11.894  2.74
   3122.62   11.896  2.74
   3125.36   11.904  2.74
   3128.10   11.919  2.74
   3130.84   11.883  2.74
   3133.58   11.861  2.74
   3136.32   11.792  2.74
   3139.06   11.759  2.74
   3141.80   11.813  2.74
   3144.54   11.879  2.74
   3147.28   11.891  2.74
   3150.02   11.819  2.74
   3152.76   11.798  2.74
   3155.50   11.784  2.74
   3158.24   11.874  2.74
   3160.98   11.890  2.74
   3163.72   11.884  2.74
   3166.46   11.813  2.74
   3169.20   11.768  2.74
   3171.94   11.733  2.74
   3174.68   11.708  2.74
   3177.42   11.717  2.74
   3180.16   11.808  2.74
   3182.90   11.857  2.74
   3185.64   11.827  2.74
   3188.38   11.792  2.74
   3191.12   11.761  2.74
   3193.86   11.794  2.74
   3196.60   11.762  2.74
   3199.34   11.662  2.74
   3202.08   11.632  2.74
   3204.82   11.643  2.74
   3207.56   11.615  2.74
   3210.30   11.680  2.74
   3213.04   11.710  2.74
   3215.78   11.765  2.74
   3218.52   11.651  2.74
   3221.26   11.619  2.74
   3224.00   11.638  2.74
   3226.74   11.693  2.74
   3229.48   11.738  2.74
   3232.22   11.735  2.74
   3234.96   11.711  2.74
   3237.70   11.683  2.74
   3240.44   11.658  2.74
   3243.18   11.629  2.74
   3245.92   11.615  2.74
   3248.66   11.614  2.74
   3251.40   11.601  2.74
   3254.14   11.552  2.74
   3256.88   11.553  2.74
   3259.62   11.498  2.74
   3262.36   11.503  2.74
   3265.10   11.495  2.74
   3267.84   11.453  2.74
   3270.58   11.482  2.74
   3273.32   11.532  2.74
   3276.06   11.531  2.74
   3278.80   11.533  2.74
   3281.54   11.486  2.74
   3284.28   11.468  2.74
   3287.02   11.453  2.74
   3289.76   11.462  2.74
   3292.50   11.420  2.74
   3295.24   11.379  2.74
   3297.98   11.379  2.74
   3300.72   11.408  2.74
   3303.46   11.415  2.74
   3306.20   11.445  2.74
   3308.94   11.433  2.74
   3311.68   11.410  2.74
   3314.42   11.432  2.74
   3317.16   11.431  2.74
   3319.90   11.428  2.74
   3322.64   11.440  2.74
   3325.38   11.438  2.74
   3328.12   11.411  2.74
   3330.86   11.441  2.74
   3333.60   11.449  2.74
   3336.34   11.449  2.74
   3339.08   11.447  2.74
   3341.82   11.439  2.74
   3344.56   11.432  2.74
   3347.30   11.419  2.74
   3350.04   11.490  2.74
   3352.78   11.440  2.74
   3355.52   11.370  2.74
   3358.26   11.377  2.74
   3361.00   11.428  2.74
   3363.74   11.443  2.74
   3366.48   11.393  2.74
   3369.22   11.413  2.74
   3371.96   11.454  2.74
   3374.70   11.431  2.74
   3377.44   11.384  2.74
   3380.18   11.406  2.74
   3382.92   11.411  2.74
   3385.66   11.389  2.74
   3388.40   11.357  2.74
   3391.14   11.305  2.74
   3393.88   11.398  2.74
   3396.62   11.325  2.74
   3399.36   11.286  2.74
   3402.10   11.306  2.74
   3404.84   11.323  2.74
   3407.58   11.375  2.74
   3410.32   11.362  2.74
   3413.06   11.345  2.74
   3415.80   11.359  2.74
   3418.54   11.339  2.74
   3421.28   11.298  2.74
   3424.02   11.312  2.74
   3426.76   11.340  2.74
   3429.50   11.287  2.74
   3432.24   11.244  2.74
   3434.98   11.299  2.74
   3437.72   11.319  2.74
   3440.46   11.331  2.74
   3443.20   11.413  2.74
   3445.94   11.354  2.74
   3448.68   11.320  2.74
   3451.42   11.275  2.74
   3454.16   11.283  2.74
   3456.90   11.281  2.74
   3459.64   11.280  2.74
   3462.38   11.297  2.74
   3465.12   11.247  2.74
   3467.86   11.258  2.74
   3470.60   11.229  2.74
   3473.34   11.278  2.74
   3476.08   11.303  2.74
   3478.82   11.300  2.74
   3481.56   11.262  2.74
   3484.30   11.247  2.74
   3487.04   11.245  2.74
   3489.78   11.278  2.74
   3492.52   11.286  2.74
   3495.26   11.273  2.74
   3498.00   11.283  2.74
   3500.74   11.231  2.74
   3503.48   11.211  2.74
   3506.22   11.179  2.74
   3508.96   11.223  2.74
   3511.70   11.241  2.74
   3514.44   11.225  2.74
   3517.18   11.238  2.74
   3519.92   11.234  2.74
   3522.66   11.262  2.74
   3525.40   11.291  2.74
   3528.14   11.281  2.74
   3530.88   11.224  2.74
   3533.62   11.206  2.74
   3536.36   11.148  2.74
   3539.10   11.157  2.74
   3541.84   11.148  2.74
   3544.58   11.130  2.74
   3547.32   11.127  2.74
   3550.06   11.137  2.74
   3552.80   11.143  2.74
   3555.54   11.163  2.74
   3558.28   11.156  2.74
   3561.02   11.143  2.74
   3563.76   11.153  2.74
   3566.50   11.195  2.74
   3569.24   11.225  2.74
   3571.98   11.255  2.74
   3574.72   11.229  2.74
   3577.46   11.192  2.74
   3580.20   11.211  2.74
   3582.94   11.250  2.74
   3585.68   11.264  2.74
   3588.42   11.266  2.74
   3591.16   11.218  2.74
   3593.90   11.139  2.74
   3596.64   11.124  2.74
   3599.38   11.101  2.74
   3602.12   11.119  2.74
   3604.86   11.149  2.74
   3607.60   11.148  2.74
   3610.34   11.163  2.74
   3613.08   11.154  2.74
   3615.82   11.146  2.74
   3618.56   11.154  2.74
   3621.30   11.167  2.74
   3624.04   11.129  2.74
   3626.78   11.077  2.74
   3629.52   11.088  2.74
   3632.26   11.132  2.74
   3635.00   11.127  2.74
   3637.74   11.106  2.74
   3640.48   11.076  2.74
   3643.22   11.078  2.74
   3645.96   11.102  2.74
   3648.70   11.116  2.74
   3651.44   11.087  2.74
   3654.18   11.045  2.74
   3656.92   11.012  2.74
   3659.66   10.992  2.74
   3662.40   11.000  2.74
   3665.14   11.020  2.74
   3667.88   11.024  2.74
   3670.62   11.051  2.74
   3673.36   11.011  2.74
   3676.10   11.017  2.74
   3678.84   11.048  2.74
   3681.58   11.053  2.74
   3684.32   11.054  2.74
   3687.06   11.048  2.74
   3689.80   11.030  2.74
   3692.54   11.016  2.74
   3695.28   10.974  2.74
   3698.02   10.970  2.74
   3700.76   10.962  2.74
   3703.50   10.990  2.74
   3706.24   11.054  2.74
   3708.98   11.062  2.74
   3711.72   11.025  2.74
   3714.46   10.958  2.74
   3717.20   10.910  2.74
   3719.94   10.976  2.74
   3722.68   11.041  2.74
   3725.42   10.994  2.74
   3728.16   10.918  2.74
   3730.90   10.934  2.74
   3733.64   10.899  2.74
   3736.38   11.073  2.74
   3739.12   11.014  2.74
   3741.86   10.895  2.74
   3744.60   10.903  2.74
   3747.34   11.012  2.74
   3750.08   11.094  2.74
   3752.82   11.019  2.74
   3755.56   10.880  2.74
   3758.30   10.835  2.74
   3761.04   10.838  2.74
   3763.78   10.832  2.74
   3766.52   10.839  2.74
   3769.26   10.918  2.74
   3772.00   10.966  2.74
   3774.74   10.873  2.74
   3777.48   10.757  2.74
   3780.22   10.682  2.74
   3782.96   10.657  2.74
   3785.70   10.685  2.74
   3788.44   10.731  2.74
   3791.18   10.768  2.74
   3793.92   10.804  2.74
   3796.66   10.912  2.74
   3799.40   10.967  2.74
   3802.14   10.836  2.74
   3804.88   10.722  2.74
   3807.62   10.682  2.74
   3810.36   10.658  2.74
   3813.10   10.671  2.74
   3815.84   10.716  2.74
   3818.58   10.702  2.74
   3821.32   10.726  2.74
   3824.06   10.739  2.74
   3826.80   10.785  2.74
   3829.54   10.854  2.74
   3832.28   10.940  2.74
   3835.02   11.070  2.74
   3837.76   11.050  2.74
   3840.50   10.910  2.74
   3843.24   10.741  2.74
   3845.98   10.655  2.74
   3848.72   10.627  2.74
   3851.46   10.621  2.74
   3854.20   10.602  2.74
   3856.94   10.620  2.74
   3859.68   10.643  2.74
   3862.42   10.616  2.74
   3865.16   10.582  2.74
   3867.90   10.581  2.74
   3870.64   10.590  2.74
   3873.38   10.636  2.74
   3876.12   10.651  2.74
   3878.86   10.651  2.74
   3881.60   10.648  2.74
   3884.34   10.708  2.74
   3887.08   10.842  2.74
   3889.82   10.931  2.74
   3892.56   10.831  2.74
   3895.30   10.741  2.74
   3898.04   10.685  2.74
   3900.78   10.661  2.74
   3903.52   10.657  2.74
   3906.26   10.654  2.74
   3909.00   10.608  2.74
   3911.74   10.579  2.74
   3914.48   10.577  2.74
   3917.22   10.598  2.74
   3919.96   10.627  2.74
   3922.70   10.649  2.74
   3925.44   10.698  2.74
   3928.18   10.847  2.74
   3930.92   11.184  2.74
   3933.66   11.585  2.74
   3936.40   11.453  2.74
   3939.14   11.007  2.74
   3941.88   10.746  2.74
   3944.62   10.666  2.74
   3947.36   10.509  2.74
   3950.10   10.522  2.74
   3952.84   10.582  2.74
   3955.58   10.601  2.74
   3958.32   10.607  2.74
   3961.06   10.651  2.74
   3963.80   10.800  2.74
   3966.54   11.115  2.74
   3969.28   11.431  2.74
   3972.02   11.183  2.74
   3974.76   10.827  2.74
   3977.50   10.616  2.74
   3980.24   10.538  2.74
   3982.98   10.520  2.74
   3985.72   10.506  2.74
   3988.46   10.501  2.74
   3991.20   10.468  2.74
   3993.94   10.452  2.74
   3996.68   10.467  2.74
   3999.42   10.481  2.74
   4002.16   10.457  2.74
   4004.90   10.443  2.74
   4007.64   10.462  2.74
   4010.38   10.447  2.74
   4013.12   10.431  2.74
   4015.86   10.428  2.74
   4018.60   10.414  2.74
   4021.34   10.401  2.74
   4024.08   10.403  2.74
   4026.82   10.405  2.74
   4029.56   10.422  2.74
   4032.30   10.438  2.74
   4035.04   10.426  2.74
   4037.78   10.398  2.74
   4040.52   10.390  2.74
   4043.26   10.402  2.74
   4046.00   10.422  2.74
   4048.74   10.409  2.74
   4051.48   10.383  2.74
   4054.22   10.394  2.74
   4056.96   10.401  2.74
   4059.70   10.407  2.74
   4062.44   10.404  2.74
   4065.18   10.406  2.74
   4067.92   10.400  2.74
   4070.66   10.395  2.74
   4073.40   10.405  2.74
   4076.14   10.405  2.74
   4078.88   10.412  2.74
   4081.62   10.393  2.74
   4084.36   10.383  2.74
   4087.10   10.378  2.74
   4089.84   10.374  2.74
   4092.58   10.390  2.74
   4095.32   10.426  2.74
   4098.06   10.504  2.74
   4100.80   10.635  2.74
   4103.54   10.649  2.74
   4106.28   10.525  2.74
   4109.02   10.438  2.74
   4111.76   10.385  2.74
   4114.50   10.354  2.74
   4117.24   10.353  2.74
   4119.98   10.362  2.74
   4122.72   10.360  2.74
   4125.46   10.352  2.74
   4128.20   10.360  2.74
   4130.94   10.361  2.74
   4133.68   10.362  2.74
   4136.42   10.345  2.74
   4139.16   10.322  2.74
   4141.90   10.328  2.74
   4144.64   10.344  2.74
   4147.38   10.339  2.74
   4150.12   10.332  2.74
   4152.86   10.329  2.74
   4155.60   10.342  2.74
   4158.34   10.327  2.74
   4161.08   10.306  2.74
   4163.82   10.307  2.74
   4166.56   10.309  2.74
   4169.30   10.316  2.74
   4172.04   10.347  2.74
   4174.78   10.362  2.74
   4177.52   10.348  2.74
   4180.26   10.331  2.74
   4183.00   10.323  2.74
   4185.74   10.329  2.74
   4188.48   10.323  2.74
   4191.22   10.312  2.74
   4193.96   10.311  2.74
   4196.70   10.324  2.74
   4199.44   10.331  2.74
   4202.18   10.320  2.74
   4204.92   10.307  2.74
   4207.66   10.301  2.74
   4210.40   10.300  2.74
   4213.14   10.304  2.74
   4215.88   10.308  2.74
   4218.62   10.303  2.74
   4221.36   10.313  2.74
   4224.10   10.339  2.74
   4226.84   10.371  2.74
   4229.58   10.345  2.74
   4232.32   10.302  2.74
   4235.06   10.303  2.74
   4237.80   10.298  2.74
   4240.54   10.287  2.74
   4243.28   10.288  2.74
   4246.02   10.301  2.74
   4248.76   10.309  2.74
   4251.50   10.300  2.74
   4254.24   10.284  2.74
   4256.98   10.280  2.74
   4259.72   10.285  2.74
   4262.46   10.271  2.74
   4265.20   10.259  2.74
   4267.94   10.276  2.74
   4270.68   10.307  2.74
   4273.42   10.311  2.74
   4276.16   10.287  2.74
   4278.90   10.270  2.74
   4281.64   10.290  2.74
   4284.38   10.308  2.74
   4287.12   10.312  2.74
   4289.86   10.338  2.74
   4292.60   10.326  2.74
   4295.34   10.333  2.74
   4298.08   10.390  2.74
   4300.82   10.429  2.74
   4303.56   10.431  2.74
   4306.30   10.433  2.74
   4309.04   10.430  2.74
   4311.78   10.386  2.74
   4314.52   10.326  2.74
   4317.26   10.270  2.74
   4320.00   10.250  2.74
   4322.74   10.281  2.74
   4325.48   10.308  2.74
   4328.22   10.279  2.74
   4330.96   10.255  2.74
   4333.70   10.283  2.74
   4336.44   10.356  2.74
   4339.18   10.493  2.74
   4341.92   10.516  2.74
   4344.66   10.372  2.74
   4347.40   10.277  2.74
   4350.14   10.255  2.74
   4352.88   10.249  2.74
   4355.62   10.230  2.74
   4358.36   10.212  2.74
   4361.10   10.204  2.74
   4363.84   10.192  2.74
   4366.58   10.189  2.74
   4369.32   10.198  2.74
   4372.06   10.205  2.74
   4374.80   10.212  2.74
   4377.54   10.216  2.74
   4380.28   10.196  2.74
   4383.02   10.223  2.74
   4385.76   10.239  2.74
   4388.50   10.210  2.74
   4391.24   10.190  2.74
   4393.98   10.191  2.74
   4396.72   10.193  2.74
   4399.46   10.194  2.74
   4402.20   10.204  2.74
   4404.94   10.201  2.74
   4407.68   10.188  2.74
   4410.42   10.161  2.74
   4413.16   10.169  2.74
   4415.90   10.189  2.74
   4418.64   10.170  2.74
   4421.38   10.167  2.74
   4424.12   10.180  2.74
   4426.86   10.166  2.74
   4429.60   10.165  2.74
   4432.34   10.178  2.74
   4435.08   10.174  2.74
   4437.82   10.155  2.74
   4440.56   10.143  2.74
   4443.30   10.159  2.74
   4446.04   10.152  2.74
   4448.78   10.147  2.74
   4451.52   10.153  2.74
   4454.26   10.158  2.74
   4457.00   10.160  2.74
   4459.74   10.152  2.74
   4462.48   10.136  2.74
   4465.22   10.131  2.74
   4467.96   10.144  2.74
   4470.70   10.136  2.74
   4473.44   10.120  2.74
   4476.18   10.114  2.74
   4478.92   10.116  2.74
   4481.66   10.127  2.74
   4484.40   10.122  2.74
   4487.14   10.111  2.74
   4489.88   10.112  2.74
   4492.62   10.106  2.74
   4495.36   10.107  2.74
   4498.10   10.106  2.74
   4500.84   10.115  2.74
   4503.58   10.104  2.74
   4506.32   10.095  2.74
   4509.06   10.090  2.74
   4511.80   10.082  2.74
   4514.54   10.093  2.74
   4517.28   10.099  2.74
   4520.02   10.098  2.74
   4522.76   10.097  2.74
   4525.50   10.110  2.74
   4528.24   10.123  2.74
   4530.98   10.123  2.74
   4533.72   10.126  2.74
   4536.46   10.113  2.74
   4539.20   10.090  2.74
   4541.94   10.071  2.74
   4544.68   10.081  2.74
   4547.42   10.105  2.74
   4550.16   10.111  2.74
   4552.90   10.102  2.74
   4555.64   10.096  2.74
   4558.38   10.082  2.74
   4561.12   10.077  2.74
   4563.86   10.076  2.74
   4566.60   10.062  2.74
   4569.34   10.059  2.74
   4572.08   10.077  2.74
   4574.82   10.060  2.74
   4577.56   10.059  2.74
   4580.30   10.070  2.74
   4583.04   10.069  2.74
   4585.78   10.068  2.74
   4588.52   10.054  2.74
   4591.26   10.055  2.74
   4594.00   10.043  2.74
   4596.74   10.038  2.74
   4599.48   10.050  2.74
   4602.22   10.052  2.74
   4604.96   10.043  2.74
   4607.70   10.032  2.74
   4610.44   10.028  2.74
   4613.18   10.042  2.74
   4615.92   10.038  2.74
   4618.66   10.028  2.74
   4621.40   10.017  2.74
   4624.14   10.022  2.74
   4626.88   10.030  2.74
   4629.62   10.027  2.74
   4632.36   10.025  2.74
   4635.10   10.038  2.74
   4637.84   10.018  2.74
   4640.58   10.019  2.74
   4643.32   10.019  2.74
   4646.06   10.018  2.74
   4648.80   10.016  2.74
   4651.54   10.014  2.74
   4654.28   10.014  2.74
   4657.02   10.014  2.74
   4659.76   10.014  2.74
   4662.50   10.000  2.74
   4665.24   10.009  2.74
   4667.98   10.020  2.74
   4670.72   10.011  2.74
   4673.46    9.998  2.74
   4676.20    9.997  2.74
   4678.94    9.993  2.74
   4681.68   10.004  2.74
   4684.42   10.001  2.74
   4687.16    9.991  2.74
   4689.90    9.991  2.74
   4692.64    9.984  2.74
   4695.38    9.985  2.74
   4698.12    9.992  2.74
   4700.86   10.011  2.74
   4703.60   10.015  2.74
   4706.34   10.005  2.74
   4709.08    9.995  2.74
   4711.82    9.987  2.74
   4714.56    9.991  2.74
   4717.30    9.987  2.74
   4720.04    9.974  2.74
   4722.78    9.983  2.74
   4725.52    9.984  2.74
   4728.26    9.983  2.74
   4731.00    9.986  2.74
   4733.74    9.979  2.74
   4736.48    9.976  2.74
   4739.22    9.989  2.74
   4741.96    9.982  2.74
   4744.70    9.975  2.74
   4747.44    9.976  2.74
   4750.18    9.983  2.74
   4752.92    9.973  2.74
   4755.66    9.978  2.74
   4758.40    9.977  2.74
   4761.14    9.979  2.74
   4763.88    9.976  2.74
   4766.62    9.979  2.74
   4769.36    9.972  2.74
   4772.10    9.959  2.74
   4774.84    9.965  2.74
   4777.58    9.981  2.74
   4780.32    9.968  2.74
   4783.06    9.958  2.74
   4785.80    9.953  2.74
   4788.54    9.964  2.74
   4791.28    9.954  2.74
   4794.02    9.947  2.74
   4796.76    9.943  2.74
   4799.50    9.938  2.74
   4802.24    9.952  2.74
   4804.98    9.962  2.74
   4807.72    9.948  2.74
   4810.46    9.950  2.74
   4813.20    9.947  2.74
   4815.94    9.937  2.74
   4818.68    9.940  2.74
   4821.42    9.950  2.74
   4824.16    9.944  2.74
   4826.90    9.941  2.74
   4829.64    9.938  2.74
   4832.38    9.941  2.74
   4835.12    9.947  2.74
   4837.86    9.939  2.74
   4840.60    9.946  2.74
   4843.34    9.952  2.74
   4846.08    9.955  2.74
   4848.82    9.963  2.74
   4851.56    9.977  2.74
   4854.30   10.016  2.74
   4857.04   10.088  2.74
   4859.78   10.187  2.74
   4862.52   10.214  2.74
   4865.26   10.076  2.74
   4868.00   10.008  2.74
   4870.74    9.989  2.74
   4873.48    9.980  2.74
   4876.22    9.963  2.74
   4878.96    9.954  2.74
   4881.70    9.932  2.74
   4884.44    9.930  2.74
   4887.18    9.940  2.74
   4889.92    9.954  2.74
   4892.66    9.938  2.74
   4895.40    9.920  2.74
   4898.14    9.909  2.74
   4900.88    9.920  2.74
   4903.62    9.913  2.74
   4906.36    9.923  2.74
   4909.10    9.914  2.74
   4911.84    9.909  2.74
   4914.58    9.904  2.74
   4917.32    9.924  2.74
   4920.06    9.925  2.74
   4922.80    9.929  2.74
   4925.54    9.912  2.74
   4928.28    9.895  2.74
   4931.02    9.897  2.74
   4933.76    9.913  2.74
   4936.50    9.912  2.74
   4939.24    9.907  2.74
   4941.98    9.882  2.74
   4944.72    9.888  2.74
   4947.46    9.886  2.74
   4950.20    9.885  2.74
   4952.94    9.898  2.74
   4955.68    9.892  2.74
   4958.42    9.909  2.74
   4961.16    9.891  2.74
   4963.90    9.876  2.74
   4966.64    9.891  2.74
   4969.38    9.878  2.74
   4972.12    9.878  2.74
   4974.86    9.880  2.74
   4977.60    9.887  2.74
   4980.34    9.899  2.74
   4983.08    9.905  2.74
   4985.82    9.903  2.74
   4988.56    9.891  2.74
   4991.30    9.878  2.74
   4994.04    9.894  2.74
   4996.78    9.873  2.74
   4999.52    9.885  2.74
   5002.26    9.886  2.74
   5005.00    9.889  2.74
   5007.74    9.890  2.74
   5010.48    9.893  2.74
   5013.22    9.897  2.74
   5015.96    9.905  2.74
   5018.70    9.874  2.74
   5021.44    9.890  2.74
   5024.18    9.878  2.74
   5026.92    9.875  2.74
   5029.66    9.867  2.74
   5032.40    9.869  2.74
