#HD16031                                                     
#                                                            
#  heap-Lindler STIS                                         
# wavelength  ABmag  band
   2950.00   11.503  2.74
   2952.74   11.462  2.74
   2955.48   11.462  2.74
   2958.22   11.431  2.74
   2960.96   11.429  2.74
   2963.70   11.425  2.74
   2966.44   11.516  2.74
   2969.18   11.507  2.74
   2971.92   11.487  2.74
   2974.66   11.424  2.74
   2977.40   11.395  2.74
   2980.14   11.424  2.74
   2982.88   11.477  2.74
   2985.62   11.536  2.74
   2988.36   11.441  2.74
   2991.10   11.389  2.74
   2993.84   11.390  2.74
   2996.58   11.387  2.74
   2999.32   11.416  2.74
   3002.06   11.468  2.74
   3004.80   11.422  2.74
   3007.54   11.406  2.74
   3010.28   11.378  2.74
   3013.02   11.379  2.74
   3015.76   11.403  2.74
   3018.50   11.445  2.74
   3021.24   11.474  2.74
   3023.98   11.363  2.74
   3026.72   11.357  2.74
   3029.46   11.354  2.74
   3032.20   11.361  2.74
   3034.94   11.306  2.74
   3037.68   11.335  2.74
   3040.42   11.349  2.74
   3043.16   11.357  2.74
   3045.90   11.334  2.74
   3048.64   11.334  2.74
   3051.38   11.318  2.74
   3054.12   11.320  2.74
   3056.86   11.361  2.74
   3059.60   11.419  2.74
   3062.34   11.383  2.74
   3065.08   11.416  2.74
   3067.82   11.429  2.74
   3070.56   11.375  2.74
   3073.30   11.361  2.74
   3076.04   11.346  2.74
   3078.78   11.347  2.74
   3081.52   11.332  2.74
   3084.26   11.297  2.74
   3087.00   11.337  2.74
   3089.74   11.423  2.74
   3092.48   11.434  2.74
   3095.22   11.414  2.74
   3097.96   11.434  2.74
   3100.70   11.423  2.74
   3103.44   11.347  2.74
   3106.18   11.304  2.74
   3108.92   11.285  2.74
   3111.66   11.272  2.74
   3114.40   11.299  2.74
   3117.14   11.300  2.74
   3119.88   11.333  2.74
   3122.62   11.339  2.74
   3125.36   11.339  2.74
   3128.10   11.328  2.74
   3130.84   11.315  2.74
   3133.58   11.293  2.74
   3136.32   11.277  2.74
   3139.06   11.258  2.74
   3141.80   11.300  2.74
   3144.54   11.329  2.74
   3147.28   11.324  2.74
   3150.02   11.247  2.74
   3152.76   11.260  2.74
   3155.50   11.296  2.74
   3158.24   11.332  2.74
   3160.98   11.341  2.74
   3163.72   11.295  2.74
   3166.46   11.264  2.74
   3169.20   11.249  2.74
   3171.94   11.208  2.74
   3174.68   11.189  2.74
   3177.42   11.245  2.74
   3180.16   11.315  2.74
   3182.90   11.298  2.74
   3185.64   11.268  2.74
   3188.38   11.257  2.74
   3191.12   11.272  2.74
   3193.86   11.286  2.74
   3196.60   11.248  2.74
   3199.34   11.194  2.74
   3202.08   11.150  2.74
   3204.82   11.151  2.74
   3207.56   11.163  2.74
   3210.30   11.233  2.74
   3213.04   11.293  2.74
   3215.78   11.254  2.74
   3218.52   11.225  2.74
   3221.26   11.196  2.74
   3224.00   11.195  2.74
   3226.74   11.223  2.74
   3229.48   11.243  2.74
   3232.22   11.256  2.74
   3234.96   11.249  2.74
   3237.70   11.218  2.74
   3240.44   11.189  2.74
   3243.18   11.150  2.74
   3245.92   11.142  2.74
   3248.66   11.176  2.74
   3251.40   11.156  2.74
   3254.14   11.160  2.74
   3256.88   11.115  2.74
   3259.62   11.097  2.74
   3262.36   11.092  2.74
   3265.10   11.093  2.74
   3267.84   11.085  2.74
   3270.58   11.108  2.74
   3273.32   11.109  2.74
   3276.06   11.109  2.74
   3278.80   11.115  2.74
   3281.54   11.102  2.74
   3284.28   11.081  2.74
   3287.02   11.080  2.74
   3289.76   11.070  2.74
   3292.50   11.038  2.74
   3295.24   11.021  2.74
   3297.98   11.032  2.74
   3300.72   11.020  2.74
   3303.46   11.053  2.74
   3306.20   11.056  2.74
   3308.94   11.060  2.74
   3311.68   11.056  2.74
   3314.42   11.037  2.74
   3317.16   11.058  2.74
   3319.90   11.053  2.74
   3322.64   11.063  2.74
   3325.38   11.060  2.74
   3328.12   11.057  2.74
   3330.86   11.055  2.74
   3333.60   11.048  2.74
   3336.34   11.061  2.74
   3339.08   11.070  2.74
   3341.82   11.083  2.74
   3344.56   11.014  2.74
   3347.30   11.053  2.74
   3350.04   11.070  2.74
   3352.78   11.009  2.74
   3355.52   11.012  2.74
   3358.26   11.021  2.74
   3361.00   11.019  2.74
   3363.74   11.075  2.74
   3366.48   11.045  2.74
   3369.22   11.073  2.74
   3371.96   11.078  2.74
   3374.70   11.050  2.74
   3377.44   11.024  2.74
   3380.18   11.067  2.74
   3382.92   11.052  2.74
   3385.66   11.015  2.74
   3388.40   11.002  2.74
   3391.14   10.998  2.74
   3393.88   11.014  2.74
   3396.62   10.971  2.74
   3399.36   10.950  2.74
   3402.10   10.976  2.74
   3404.84   10.987  2.74
   3407.58   11.000  2.74
   3410.32   11.009  2.74
   3413.06   10.999  2.74
   3415.80   11.009  2.74
   3418.54   10.966  2.74
   3421.28   10.952  2.74
   3424.02   10.983  2.74
   3426.76   10.951  2.74
   3429.50   10.941  2.74
   3432.24   10.951  2.74
   3434.98   10.933  2.74
   3437.72   10.940  2.74
   3440.46   11.003  2.74
   3443.20   11.021  2.74
   3445.94   10.990  2.74
   3448.68   10.958  2.74
   3451.42   10.948  2.74
   3454.16   10.949  2.74
   3456.90   10.934  2.74
   3459.64   10.948  2.74
   3462.38   10.953  2.74
   3465.12   10.956  2.74
   3467.86   10.924  2.74
   3470.60   10.905  2.74
   3473.34   10.935  2.74
   3476.08   10.965  2.74
   3478.82   10.931  2.74
   3481.56   10.899  2.74
   3484.30   10.924  2.74
   3487.04   10.911  2.74
   3489.78   10.924  2.74
   3492.52   10.935  2.74
   3495.26   10.937  2.74
   3498.00   10.941  2.74
   3500.74   10.892  2.74
   3503.48   10.863  2.74
   3506.22   10.918  2.74
   3508.96   10.918  2.74
   3511.70   10.915  2.74
   3514.44   10.912  2.74
   3517.18   10.881  2.74
   3519.92   10.890  2.74
   3522.66   10.930  2.74
   3525.40   10.958  2.74
   3528.14   10.936  2.74
   3530.88   10.883  2.74
   3533.62   10.859  2.74
   3536.36   10.856  2.74
   3539.10   10.852  2.74
   3541.84   10.861  2.74
   3544.58   10.862  2.74
   3547.32   10.837  2.74
   3550.06   10.813  2.74
   3552.80   10.836  2.74
   3555.54   10.856  2.74
   3558.28   10.842  2.74
   3561.02   10.849  2.74
   3563.76   10.843  2.74
   3566.50   10.895  2.74
   3569.24   10.888  2.74
   3571.98   10.925  2.74
   3574.72   10.917  2.74
   3577.46   10.869  2.74
   3580.20   10.883  2.74
   3582.94   10.906  2.74
   3585.68   10.917  2.74
   3588.42   10.914  2.74
   3591.16   10.859  2.74
   3593.90   10.823  2.74
   3596.64   10.810  2.74
   3599.38   10.795  2.74
   3602.12   10.827  2.74
   3604.86   10.841  2.74
   3607.60   10.857  2.74
   3610.34   10.844  2.74
   3613.08   10.853  2.74
   3615.82   10.815  2.74
   3618.56   10.855  2.74
   3621.30   10.839  2.74
   3624.04   10.807  2.74
   3626.78   10.795  2.74
   3629.52   10.793  2.74
   3632.26   10.836  2.74
   3635.00   10.828  2.74
   3637.74   10.784  2.74
   3640.48   10.767  2.74
   3643.22   10.810  2.74
   3645.96   10.806  2.74
   3648.70   10.808  2.74
   3651.44   10.784  2.74
   3654.18   10.752  2.74
   3656.92   10.736  2.74
   3659.66   10.741  2.74
   3662.40   10.753  2.74
   3665.14   10.734  2.74
   3667.88   10.739  2.74
   3670.62   10.747  2.74
   3673.36   10.732  2.74
   3676.10   10.755  2.74
   3678.84   10.773  2.74
   3681.58   10.787  2.74
   3684.32   10.770  2.74
   3687.06   10.784  2.74
   3689.80   10.767  2.74
   3692.54   10.732  2.74
   3695.28   10.719  2.74
   3698.02   10.725  2.74
   3700.76   10.698  2.74
   3703.50   10.764  2.74
   3706.24   10.798  2.74
   3708.98   10.768  2.74
   3711.72   10.758  2.74
   3714.46   10.687  2.74
   3717.20   10.663  2.74
   3719.94   10.720  2.74
   3722.68   10.799  2.74
   3725.42   10.689  2.74
   3728.16   10.613  2.74
   3730.90   10.652  2.74
   3733.64   10.806  2.74
   3736.38   10.830  2.74
   3739.12   10.669  2.74
   3741.86   10.578  2.74
   3744.60   10.637  2.74
   3747.34   10.715  2.74
   3750.08   10.837  2.74
   3752.82   10.726  2.74
   3755.56   10.561  2.74
   3758.30   10.552  2.74
   3761.04   10.542  2.74
   3763.78   10.543  2.74
   3766.52   10.586  2.74
   3769.26   10.725  2.74
   3772.00   10.774  2.74
   3774.74   10.585  2.74
   3777.48   10.474  2.74
   3780.22   10.416  2.74
   3782.96   10.410  2.74
   3785.70   10.412  2.74
   3788.44   10.460  2.74
   3791.18   10.469  2.74
   3793.92   10.549  2.74
   3796.66   10.739  2.74
   3799.40   10.789  2.74
   3802.14   10.579  2.74
   3804.88   10.463  2.74
   3807.62   10.410  2.74
   3810.36   10.373  2.74
   3813.10   10.377  2.74
   3815.84   10.417  2.74
   3818.58   10.390  2.74
   3821.32   10.402  2.74
   3824.06   10.418  2.74
   3826.80   10.483  2.74
   3829.54   10.545  2.74
   3832.28   10.654  2.74
   3835.02   10.845  2.74
   3837.76   10.783  2.74
   3840.50   10.589  2.74
   3843.24   10.446  2.74
   3845.98   10.388  2.74
   3848.72   10.345  2.74
   3851.46   10.333  2.74
   3854.20   10.301  2.74
   3856.94   10.330  2.74
   3859.68   10.355  2.74
   3862.42   10.314  2.74
   3865.16   10.308  2.74
   3867.90   10.302  2.74
   3870.64   10.301  2.74
   3873.38   10.350  2.74
   3876.12   10.356  2.74
   3878.86   10.396  2.74
   3881.60   10.392  2.74
   3884.34   10.339  2.74
   3887.08   10.621  2.74
   3889.82   10.758  2.74
   3892.56   10.587  2.74
   3895.30   10.465  2.74
   3898.04   10.390  2.74
   3900.78   10.371  2.74
   3903.52   10.353  2.74
   3906.26   10.346  2.74
   3909.00   10.299  2.74
   3911.74   10.275  2.74
   3914.48   10.284  2.74
   3917.22   10.289  2.74
   3919.96   10.298  2.74
   3922.70   10.314  2.74
   3925.44   10.323  2.74
   3928.18   10.427  2.74
   3930.92   10.711  2.74
   3933.66   11.081  2.74
   3936.40   10.799  2.74
   3939.14   10.460  2.74
   3941.88   10.321  2.74
   3944.62   10.292  2.74
   3947.36   10.285  2.74
   3950.10   10.291  2.74
   3952.84   10.289  2.74
   3955.58   10.308  2.74
   3958.32   10.321  2.74
   3961.06   10.363  2.74
   3963.80   10.474  2.74
   3966.54   10.777  2.74
   3969.28   11.081  2.74
   3972.02   10.798  2.74
   3974.76   10.474  2.74
   3977.50   10.349  2.74
   3980.24   10.287  2.74
   3982.98   10.272  2.74
   3985.72   10.257  2.74
   3988.46   10.219  2.74
   3991.20   10.220  2.74
   3993.94   10.207  2.74
   3996.68   10.213  2.74
   3999.42   10.204  2.74
   4002.16   10.182  2.74
   4004.90   10.197  2.74
   4007.64   10.203  2.74
   4010.38   10.199  2.74
   4013.12   10.171  2.74
   4015.86   10.169  2.74
   4018.60   10.162  2.74
   4021.34   10.157  2.74
   4024.08   10.168  2.74
   4026.82   10.164  2.74
   4029.56   10.176  2.74
   4032.30   10.183  2.74
   4035.04   10.170  2.74
   4037.78   10.150  2.74
   4040.52   10.154  2.74
   4043.26   10.160  2.74
   4046.00   10.173  2.74
   4048.74   10.153  2.74
   4051.48   10.144  2.74
   4054.22   10.140  2.74
   4056.96   10.157  2.74
   4059.70   10.163  2.74
   4062.44   10.171  2.74
   4065.18   10.171  2.74
   4067.92   10.154  2.74
   4070.66   10.170  2.74
   4073.40   10.170  2.74
   4076.14   10.178  2.74
   4078.88   10.178  2.74
   4081.62   10.170  2.74
   4084.36   10.176  2.74
   4087.10   10.176  2.74
   4089.84   10.186  2.74
   4092.58   10.209  2.74
   4095.32   10.259  2.74
   4098.06   10.367  2.74
   4100.80   10.542  2.74
   4103.54   10.515  2.74
   4106.28   10.360  2.74
   4109.02   10.261  2.74
   4111.76   10.199  2.74
   4114.50   10.176  2.74
   4117.24   10.157  2.74
   4119.98   10.154  2.74
   4122.72   10.147  2.74
   4125.46   10.139  2.74
   4128.20   10.131  2.74
   4130.94   10.144  2.74
   4133.68   10.150  2.74
   4136.42   10.131  2.74
   4139.16   10.115  2.74
   4141.90   10.121  2.74
   4144.64   10.136  2.74
   4147.38   10.119  2.74
   4150.12   10.117  2.74
   4152.86   10.124  2.74
   4155.60   10.124  2.74
   4158.34   10.113  2.74
   4161.08   10.102  2.74
   4163.82   10.096  2.74
   4166.56   10.106  2.74
   4169.30   10.110  2.74
   4172.04   10.123  2.74
   4174.78   10.123  2.74
   4177.52   10.121  2.74
   4180.26   10.109  2.74
   4183.00   10.108  2.74
   4185.74   10.117  2.74
   4188.48   10.113  2.74
   4191.22   10.106  2.74
   4193.96   10.098  2.74
   4196.70   10.109  2.74
   4199.44   10.116  2.74
   4202.18   10.104  2.74
   4204.92   10.096  2.74
   4207.66   10.092  2.74
   4210.40   10.095  2.74
   4213.14   10.094  2.74
   4215.88   10.111  2.74
   4218.62   10.102  2.74
   4221.36   10.102  2.74
   4224.10   10.126  2.74
   4226.84   10.145  2.74
   4229.58   10.099  2.74
   4232.32   10.089  2.74
   4235.06   10.100  2.74
   4237.80   10.098  2.74
   4240.54   10.080  2.74
   4243.28   10.086  2.74
   4246.02   10.078  2.74
   4248.76   10.101  2.74
   4251.50   10.101  2.74
   4254.24   10.087  2.74
   4256.98   10.079  2.74
   4259.72   10.087  2.74
   4262.46   10.080  2.74
   4265.20   10.065  2.74
   4267.94   10.078  2.74
   4270.68   10.095  2.74
   4273.42   10.089  2.74
   4276.16   10.076  2.74
   4278.90   10.071  2.74
   4281.64   10.079  2.74
   4284.38   10.083  2.74
   4287.12   10.098  2.74
   4289.86   10.114  2.74
   4292.60   10.106  2.74
   4295.34   10.108  2.74
   4298.08   10.132  2.74
   4300.82   10.162  2.74
   4303.56   10.158  2.74
   4306.30   10.146  2.74
   4309.04   10.134  2.74
   4311.78   10.124  2.74
   4314.52   10.108  2.74
   4317.26   10.085  2.74
   4320.00   10.081  2.74
   4322.74   10.104  2.74
   4325.48   10.113  2.74
   4328.22   10.104  2.74
   4330.96   10.121  2.74
   4333.70   10.162  2.74
   4336.44   10.263  2.74
   4339.18   10.432  2.74
   4341.92   10.413  2.74
   4344.66   10.254  2.74
   4347.40   10.150  2.74
   4350.14   10.129  2.74
   4352.88   10.103  2.74
   4355.62   10.069  2.74
   4358.36   10.054  2.74
   4361.10   10.047  2.74
   4363.84   10.034  2.74
   4366.58   10.039  2.74
   4369.32   10.047  2.74
   4372.06   10.048  2.74
   4374.80   10.051  2.74
   4377.54   10.020  2.74
   4380.28   10.023  2.74
   4383.02   10.051  2.74
   4385.76   10.041  2.74
   4388.50   10.022  2.74
   4391.24   10.025  2.74
   4393.98   10.034  2.74
   4396.72   10.028  2.74
   4399.46   10.029  2.74
   4402.20   10.032  2.74
   4404.94   10.024  2.74
   4407.68   10.019  2.74
   4410.42    9.990  2.74
   4413.16   10.003  2.74
   4415.90   10.022  2.74
   4418.64   10.011  2.74
   4421.38   10.001  2.74
   4424.12   10.007  2.74
   4426.86   10.008  2.74
   4429.60   10.003  2.74
   4432.34    9.989  2.74
   4435.08    9.997  2.74
   4437.82    9.998  2.74
   4440.56    9.998  2.74
   4443.30   10.006  2.74
   4446.04   10.001  2.74
   4448.78    9.995  2.74
   4451.52    9.998  2.74
   4454.26   10.012  2.74
   4457.00   10.011  2.74
   4459.74    9.992  2.74
   4462.48    9.997  2.74
   4465.22   10.004  2.74
   4467.96   10.006  2.74
   4470.70    9.987  2.74
   4473.44    9.985  2.74
   4476.18    9.985  2.74
   4478.92    9.985  2.74
   4481.66    9.994  2.74
   4484.40    9.982  2.74
   4487.14    9.976  2.74
   4489.88    9.985  2.74
   4492.62    9.981  2.74
   4495.36    9.987  2.74
   4498.10    9.989  2.74
   4500.84    9.984  2.74
   4503.58    9.976  2.74
   4506.32    9.971  2.74
   4509.06    9.969  2.74
   4511.80    9.961  2.74
   4514.54    9.970  2.74
   4517.28    9.970  2.74
   4520.02    9.971  2.74
   4522.76    9.990  2.74
   4525.50    9.990  2.74
   4528.24    9.996  2.74
   4530.98   10.000  2.74
   4533.72   10.003  2.74
   4536.46    9.992  2.74
   4539.20    9.970  2.74
   4541.94    9.964  2.74
   4544.68    9.963  2.74
   4547.42    9.981  2.74
   4550.16    9.987  2.74
   4552.90    9.982  2.74
   4555.64    9.977  2.74
   4558.38    9.963  2.74
   4561.12    9.955  2.74
   4563.86    9.961  2.74
   4566.60    9.957  2.74
   4569.34    9.962  2.74
   4572.08    9.967  2.74
   4574.82    9.961  2.74
   4577.56    9.951  2.74
   4580.30    9.950  2.74
   4583.04    9.963  2.74
   4585.78    9.956  2.74
   4588.52    9.954  2.74
   4591.26    9.950  2.74
   4594.00    9.940  2.74
   4596.74    9.952  2.74
   4599.48    9.956  2.74
   4602.22    9.946  2.74
   4604.96    9.938  2.74
   4607.70    9.941  2.74
   4610.44    9.941  2.74
   4613.18    9.936  2.74
   4615.92    9.938  2.74
   4618.66    9.932  2.74
   4621.40    9.927  2.74
   4624.14    9.931  2.74
   4626.88    9.931  2.74
   4629.62    9.928  2.74
   4632.36    9.927  2.74
   4635.10    9.926  2.74
   4637.84    9.929  2.74
   4640.58    9.922  2.74
   4643.32    9.922  2.74
   4646.06    9.932  2.74
   4648.80    9.926  2.74
   4651.54    9.929  2.74
   4654.28    9.930  2.74
   4657.02    9.925  2.74
   4659.76    9.918  2.74
   4662.50    9.922  2.74
   4665.24    9.925  2.74
   4667.98    9.922  2.74
   4670.72    9.925  2.74
   4673.46    9.924  2.74
   4676.20    9.926  2.74
   4678.94    9.924  2.74
   4681.68    9.915  2.74
   4684.42    9.917  2.74
   4687.16    9.921  2.74
   4689.90    9.917  2.74
   4692.64    9.915  2.74
   4695.38    9.916  2.74
   4698.12    9.918  2.74
   4700.86    9.926  2.74
   4703.60    9.926  2.74
   4706.34    9.920  2.74
   4709.08    9.911  2.74
   4711.82    9.899  2.74
   4714.56    9.902  2.74
   4717.30    9.907  2.74
   4720.04    9.902  2.74
   4722.78    9.902  2.74
   4725.52    9.904  2.74
   4728.26    9.897  2.74
   4731.00    9.898  2.74
   4733.74    9.909  2.74
   4736.48    9.909  2.74
   4739.22    9.893  2.74
   4741.96    9.882  2.74
   4744.70    9.894  2.74
   4747.44    9.902  2.74
   4750.18    9.902  2.74
   4752.92    9.901  2.74
   4755.66    9.894  2.74
   4758.40    9.899  2.74
   4761.14    9.915  2.74
   4763.88    9.909  2.74
   4766.62    9.897  2.74
   4769.36    9.898  2.74
   4772.10    9.898  2.74
   4774.84    9.900  2.74
   4777.58    9.898  2.74
   4780.32    9.887  2.74
   4783.06    9.889  2.74
   4785.80    9.890  2.74
   4788.54    9.890  2.74
   4791.28    9.891  2.74
   4794.02    9.887  2.74
   4796.76    9.894  2.74
   4799.50    9.888  2.74
   4802.24    9.888  2.74
   4804.98    9.903  2.74
   4807.72    9.896  2.74
   4810.46    9.886  2.74
   4813.20    9.889  2.74
   4815.94    9.888  2.74
   4818.68    9.890  2.74
   4821.42    9.885  2.74
   4824.16    9.886  2.74
   4826.90    9.887  2.74
   4829.64    9.891  2.74
   4832.38    9.886  2.74
   4835.12    9.888  2.74
   4837.86    9.902  2.74
   4840.60    9.899  2.74
   4843.34    9.901  2.74
   4846.08    9.913  2.74
   4848.82    9.931  2.74
   4851.56    9.954  2.74
   4854.30    9.984  2.74
   4857.04   10.082  2.74
   4859.78   10.231  2.74
   4862.52   10.239  2.74
   4865.26   10.091  2.74
   4868.00   10.003  2.74
   4870.74    9.966  2.74
   4873.48    9.938  2.74
   4876.22    9.915  2.74
   4878.96    9.905  2.74
   4881.70    9.895  2.74
   4884.44    9.889  2.74
   4887.18    9.895  2.74
   4889.92    9.899  2.74
   4892.66    9.888  2.74
   4895.40    9.880  2.74
   4898.14    9.875  2.74
   4900.88    9.869  2.74
   4903.62    9.872  2.74
   4906.36    9.867  2.74
   4909.10    9.865  2.74
   4911.84    9.864  2.74
   4914.58    9.867  2.74
   4917.32    9.869  2.74
   4920.06    9.883  2.74
   4922.80    9.887  2.74
   4925.54    9.869  2.74
   4928.28    9.858  2.74
   4931.02    9.861  2.74
   4933.76    9.871  2.74
   4936.50    9.868  2.74
   4939.24    9.861  2.74
   4941.98    9.852  2.74
   4944.72    9.844  2.74
   4947.46    9.851  2.74
   4950.20    9.841  2.74
   4952.94    9.847  2.74
   4955.68    9.871  2.74
   4958.42    9.873  2.74
   4961.16    9.853  2.74
   4963.90    9.857  2.74
   4966.64    9.842  2.74
   4969.38    9.822  2.74
   4972.12    9.841  2.74
   4974.86    9.849  2.74
   4977.60    9.852  2.74
   4980.34    9.860  2.74
   4983.08    9.867  2.74
   4985.82    9.853  2.74
   4988.56    9.846  2.74
   4991.30    9.854  2.74
   4994.04    9.857  2.74
   4996.78    9.854  2.74
   4999.52    9.855  2.74
   5002.26    9.863  2.74
   5005.00    9.859  2.74
   5007.74    9.861  2.74
   5010.48    9.857  2.74
   5013.22    9.868  2.74
   5015.96    9.869  2.74
   5018.70    9.858  2.74
   5021.44    9.852  2.74
   5024.18    9.842  2.74
   5026.92    9.850  2.74
   5029.66    9.849  2.74
   5032.40    9.845  2.74
