#HD019445                                                    
#                                                            
#  HEAP-Lindler STIS                                         
# wavelength  ABmag  band
   2950.00    9.767  2.74
   2952.74    9.746  2.74
   2955.48    9.723  2.74
   2958.22    9.704  2.74
   2960.96    9.685  2.74
   2963.70    9.705  2.74
   2966.44    9.787  2.74
   2969.18    9.784  2.74
   2971.92    9.771  2.74
   2974.66    9.692  2.74
   2977.40    9.650  2.74
   2980.14    9.701  2.74
   2982.88    9.758  2.74
   2985.62    9.796  2.74
   2988.36    9.707  2.74
   2991.10    9.650  2.74
   2993.84    9.680  2.74
   2996.58    9.659  2.74
   2999.32    9.692  2.74
   3002.06    9.742  2.74
   3004.80    9.689  2.74
   3007.54    9.694  2.74
   3010.28    9.664  2.74
   3013.02    9.644  2.74
   3015.76    9.661  2.74
   3018.50    9.720  2.74
   3021.24    9.780  2.74
   3023.98    9.677  2.74
   3026.72    9.644  2.74
   3029.46    9.612  2.74
   3032.20    9.621  2.74
   3034.94    9.590  2.74
   3037.68    9.622  2.74
   3040.42    9.608  2.74
   3043.16    9.615  2.74
   3045.90    9.603  2.74
   3048.64    9.613  2.74
   3051.38    9.585  2.74
   3054.12    9.593  2.74
   3056.86    9.639  2.74
   3059.60    9.669  2.74
   3062.34    9.648  2.74
   3065.08    9.688  2.74
   3067.82    9.752  2.74
   3070.56    9.706  2.74
   3073.30    9.668  2.74
   3076.04    9.627  2.74
   3078.78    9.626  2.74
   3081.52    9.628  2.74
   3084.26    9.603  2.74
   3087.00    9.621  2.74
   3089.74    9.654  2.74
   3092.48    9.701  2.74
   3095.22    9.700  2.74
   3097.96    9.689  2.74
   3100.70    9.696  2.74
   3103.44    9.665  2.74
   3106.18    9.608  2.74
   3108.92    9.560  2.74
   3111.66    9.545  2.74
   3114.40    9.546  2.74
   3117.14    9.556  2.74
   3119.88    9.585  2.74
   3122.62    9.594  2.74
   3125.36    9.599  2.74
   3128.10    9.598  2.74
   3130.84    9.587  2.74
   3133.58    9.568  2.74
   3136.32    9.549  2.74
   3139.06    9.526  2.74
   3141.80    9.542  2.74
   3144.54    9.619  2.74
   3147.28    9.592  2.74
   3150.02    9.542  2.74
   3152.76    9.533  2.74
   3155.50    9.546  2.74
   3158.24    9.586  2.74
   3160.98    9.610  2.74
   3163.72    9.588  2.74
   3166.46    9.510  2.74
   3169.20    9.501  2.74
   3171.94    9.494  2.74
   3174.68    9.467  2.74
   3177.42    9.482  2.74
   3180.16    9.532  2.74
   3182.90    9.553  2.74
   3185.64    9.528  2.74
   3188.38    9.498  2.74
   3191.12    9.502  2.74
   3193.86    9.526  2.74
   3196.60    9.517  2.74
   3199.34    9.485  2.74
   3202.08    9.460  2.74
   3204.82    9.436  2.74
   3207.56    9.420  2.74
   3210.30    9.452  2.74
   3213.04    9.493  2.74
   3215.78    9.492  2.74
   3218.52    9.467  2.74
   3221.26    9.445  2.74
   3224.00    9.440  2.74
   3226.74    9.457  2.74
   3229.48    9.480  2.74
   3232.22    9.479  2.74
   3234.96    9.476  2.74
   3237.70    9.473  2.74
   3240.44    9.450  2.74
   3243.18    9.419  2.74
   3245.92    9.390  2.74
   3248.66    9.402  2.74
   3251.40    9.408  2.74
   3254.14    9.405  2.74
   3256.88    9.373  2.74
   3259.62    9.345  2.74
   3262.36    9.339  2.74
   3265.10    9.340  2.74
   3267.84    9.331  2.74
   3270.58    9.334  2.74
   3273.32    9.351  2.74
   3276.06    9.339  2.74
   3278.80    9.347  2.74
   3281.54    9.343  2.74
   3284.28    9.320  2.74
   3287.02    9.322  2.74
   3289.76    9.326  2.74
   3292.50    9.303  2.74
   3295.24    9.278  2.74
   3297.98    9.269  2.74
   3300.72    9.273  2.74
   3303.46    9.281  2.74
   3306.20    9.306  2.74
   3308.94    9.297  2.74
   3311.68    9.273  2.74
   3314.42    9.272  2.74
   3317.16    9.283  2.74
   3319.90    9.288  2.74
   3322.64    9.308  2.74
   3325.38    9.312  2.74
   3328.12    9.296  2.74
   3330.86    9.299  2.74
   3333.60    9.295  2.74
   3336.34    9.292  2.74
   3339.08    9.291  2.74
   3341.82    9.298  2.74
   3344.56    9.291  2.74
   3347.30    9.281  2.74
   3350.04    9.306  2.74
   3352.78    9.286  2.74
   3355.52    9.239  2.74
   3358.26    9.238  2.74
   3361.00    9.278  2.74
   3363.74    9.293  2.74
   3366.48    9.278  2.74
   3369.22    9.279  2.74
   3371.96    9.300  2.74
   3374.70    9.294  2.74
   3377.44    9.250  2.74
   3380.18    9.262  2.74
   3382.92    9.274  2.74
   3385.66    9.254  2.74
   3388.40    9.238  2.74
   3391.14    9.243  2.74
   3393.88    9.256  2.74
   3396.62    9.230  2.74
   3399.36    9.204  2.74
   3402.10    9.199  2.74
   3404.84    9.222  2.74
   3407.58    9.247  2.74
   3410.32    9.243  2.74
   3413.06    9.245  2.74
   3415.80    9.240  2.74
   3418.54    9.217  2.74
   3421.28    9.196  2.74
   3424.02    9.199  2.74
   3426.76    9.207  2.74
   3429.50    9.196  2.74
   3432.24    9.182  2.74
   3434.98    9.184  2.74
   3437.72    9.190  2.74
   3440.46    9.195  2.74
   3443.20    9.240  2.74
   3445.94    9.246  2.74
   3448.68    9.202  2.74
   3451.42    9.193  2.74
   3454.16    9.198  2.74
   3456.90    9.186  2.74
   3459.64    9.180  2.74
   3462.38    9.191  2.74
   3465.12    9.183  2.74
   3467.86    9.168  2.74
   3470.60    9.161  2.74
   3473.34    9.169  2.74
   3476.08    9.200  2.74
   3478.82    9.185  2.74
   3481.56    9.145  2.74
   3484.30    9.141  2.74
   3487.04    9.139  2.74
   3489.78    9.156  2.74
   3492.52    9.177  2.74
   3495.26    9.170  2.74
   3498.00    9.162  2.74
   3500.74    9.155  2.74
   3503.48    9.142  2.74
   3506.22    9.117  2.74
   3508.96    9.119  2.74
   3511.70    9.146  2.74
   3514.44    9.161  2.74
   3517.18    9.146  2.74
   3519.92    9.125  2.74
   3522.66    9.138  2.74
   3525.40    9.178  2.74
   3528.14    9.184  2.74
   3530.88    9.139  2.74
   3533.62    9.106  2.74
   3536.36    9.097  2.74
   3539.10    9.090  2.74
   3541.84    9.086  2.74
   3544.58    9.079  2.74
   3547.32    9.071  2.74
   3550.06    9.065  2.74
   3552.80    9.068  2.74
   3555.54    9.078  2.74
   3558.28    9.078  2.74
   3561.02    9.066  2.74
   3563.76    9.069  2.74
   3566.50    9.101  2.74
   3569.24    9.129  2.74
   3571.98    9.145  2.74
   3574.72    9.127  2.74
   3577.46    9.103  2.74
   3580.20    9.105  2.74
   3582.94    9.118  2.74
   3585.68    9.143  2.74
   3588.42    9.146  2.74
   3591.16    9.096  2.74
   3593.90    9.066  2.74
   3596.64    9.061  2.74
   3599.38    9.038  2.74
   3602.12    9.036  2.74
   3604.86    9.060  2.74
   3607.60    9.071  2.74
   3610.34    9.071  2.74
   3613.08    9.069  2.74
   3615.82    9.056  2.74
   3618.56    9.058  2.74
   3621.30    9.068  2.74
   3624.04    9.050  2.74
   3626.78    9.020  2.74
   3629.52    9.016  2.74
   3632.26    9.051  2.74
   3635.00    9.055  2.74
   3637.74    9.025  2.74
   3640.48    9.012  2.74
   3643.22    9.020  2.74
   3645.96    9.033  2.74
   3648.70    9.041  2.74
   3651.44    9.029  2.74
   3654.18    8.994  2.74
   3656.92    8.978  2.74
   3659.66    8.980  2.74
   3662.40    8.981  2.74
   3665.14    8.977  2.74
   3667.88    8.963  2.74
   3670.62    8.967  2.74
   3673.36    8.975  2.74
   3676.10    8.970  2.74
   3678.84    8.981  2.74
   3681.58    8.996  2.74
   3684.32    9.006  2.74
   3687.06    9.015  2.74
   3689.80    8.999  2.74
   3692.54    8.966  2.74
   3695.28    8.954  2.74
   3698.02    8.952  2.74
   3700.76    8.952  2.74
   3703.50    8.958  2.74
   3706.24    9.003  2.74
   3708.98    9.008  2.74
   3711.72    8.992  2.74
   3714.46    8.961  2.74
   3717.20    8.910  2.74
   3719.94    8.950  2.74
   3722.68    9.029  2.74
   3725.42    8.987  2.74
   3728.16    8.904  2.74
   3730.90    8.902  2.74
   3733.64    8.992  2.74
   3736.38    9.087  2.74
   3739.12    8.997  2.74
   3741.86    8.872  2.74
   3744.60    8.879  2.74
   3747.34    8.960  2.74
   3750.08    9.058  2.74
   3752.82    9.032  2.74
   3755.56    8.884  2.74
   3758.30    8.833  2.74
   3761.04    8.837  2.74
   3763.78    8.818  2.74
   3766.52    8.841  2.74
   3769.26    8.932  2.74
   3772.00    8.995  2.74
   3774.74    8.916  2.74
   3777.48    8.793  2.74
   3780.22    8.729  2.74
   3782.96    8.702  2.74
   3785.70    8.704  2.74
   3788.44    8.725  2.74
   3791.18    8.749  2.74
   3793.92    8.796  2.74
   3796.66    8.922  2.74
   3799.40    9.023  2.74
   3802.14    8.915  2.74
   3804.88    8.769  2.74
   3807.62    8.724  2.74
   3810.36    8.697  2.74
   3813.10    8.684  2.74
   3815.84    8.706  2.74
   3818.58    8.704  2.74
   3821.32    8.703  2.74
   3824.06    8.732  2.74
   3826.80    8.771  2.74
   3829.54    8.811  2.74
   3832.28    8.900  2.74
   3835.02    9.046  2.74
   3837.76    9.084  2.74
   3840.50    8.936  2.74
   3843.24    8.782  2.74
   3845.98    8.690  2.74
   3848.72    8.664  2.74
   3851.46    8.655  2.74
   3854.20    8.637  2.74
   3856.94    8.638  2.74
   3859.68    8.661  2.74
   3862.42    8.651  2.74
   3865.16    8.619  2.74
   3867.90    8.617  2.74
   3870.64    8.627  2.74
   3873.38    8.655  2.74
   3876.12    8.669  2.74
   3878.86    8.683  2.74
   3881.60    8.692  2.74
   3884.34    8.718  2.74
   3887.08    8.860  2.74
   3889.82    8.993  2.74
   3892.56    8.915  2.74
   3895.30    8.775  2.74
   3898.04    8.716  2.74
   3900.78    8.685  2.74
   3903.52    8.668  2.74
   3906.26    8.660  2.74
   3909.00    8.629  2.74
   3911.74    8.598  2.74
   3914.48    8.595  2.74
   3917.22    8.600  2.74
   3919.96    8.608  2.74
   3922.70    8.621  2.74
   3925.44    8.623  2.74
   3928.18    8.683  2.74
   3930.92    8.890  2.74
   3933.66    9.226  2.74
   3936.40    9.230  2.74
   3939.14    8.829  2.74
   3941.88    8.655  2.74
   3944.62    8.609  2.74
   3947.36    8.591  2.74
   3950.10    8.583  2.74
   3952.84    8.590  2.74
   3955.58    8.595  2.74
   3958.32    8.605  2.74
   3961.06    8.634  2.74
   3963.80    8.717  2.74
   3966.54    8.929  2.74
   3969.28    9.273  2.74
   3972.02    9.179  2.74
   3974.76    8.827  2.74
   3977.50    8.662  2.74
   3980.24    8.587  2.74
   3982.98    8.562  2.74
   3985.72    8.551  2.74
   3988.46    8.533  2.74
   3991.20    8.511  2.74
   3993.94    8.516  2.74
   3996.68    8.522  2.74
   3999.42    8.523  2.74
   4002.16    8.511  2.74
   4004.90    8.512  2.74
   4007.64    8.508  2.74
   4010.38    8.502  2.74
   4013.12    8.502  2.74
   4015.86    8.491  2.74
   4018.60    8.485  2.74
   4021.34    8.481  2.74
   4024.08    8.483  2.74
   4026.82    8.479  2.74
   4029.56    8.480  2.74
   4032.30    8.500  2.74
   4035.04    8.493  2.74
   4037.78    8.479  2.74
   4040.52    8.470  2.74
   4043.26    8.479  2.74
   4046.00    8.492  2.74
   4048.74    8.488  2.74
   4051.48    8.463  2.74
   4054.22    8.461  2.74
   4056.96    8.473  2.74
   4059.70    8.474  2.74
   4062.44    8.475  2.74
   4065.18    8.492  2.74
   4067.92    8.478  2.74
   4070.66    8.470  2.74
   4073.40    8.483  2.74
   4076.14    8.483  2.74
   4078.88    8.479  2.74
   4081.62    8.470  2.74
   4084.36    8.471  2.74
   4087.10    8.476  2.74
   4089.84    8.477  2.74
   4092.58    8.491  2.74
   4095.32    8.527  2.74
   4098.06    8.603  2.74
   4100.80    8.740  2.74
   4103.54    8.814  2.74
   4106.28    8.652  2.74
   4109.02    8.549  2.74
   4111.76    8.499  2.74
   4114.50    8.473  2.74
   4117.24    8.465  2.74
   4119.98    8.462  2.74
   4122.72    8.454  2.74
   4125.46    8.448  2.74
   4128.20    8.440  2.74
   4130.94    8.439  2.74
   4133.68    8.450  2.74
   4136.42    8.441  2.74
   4139.16    8.433  2.74
   4141.90    8.436  2.74
   4144.64    8.443  2.74
   4147.38    8.433  2.74
   4150.12    8.428  2.74
   4152.86    8.426  2.74
   4155.60    8.434  2.74
   4158.34    8.432  2.74
   4161.08    8.416  2.74
   4163.82    8.409  2.74
   4166.56    8.418  2.74
   4169.30    8.418  2.74
   4172.04    8.420  2.74
   4174.78    8.429  2.74
   4177.52    8.424  2.74
   4180.26    8.420  2.74
   4183.00    8.417  2.74
   4185.74    8.423  2.74
   4188.48    8.431  2.74
   4191.22    8.419  2.74
   4193.96    8.412  2.74
   4196.70    8.421  2.74
   4199.44    8.434  2.74
   4202.18    8.425  2.74
   4204.92    8.412  2.74
   4207.66    8.399  2.74
   4210.40    8.401  2.74
   4213.14    8.403  2.74
   4215.88    8.412  2.74
   4218.62    8.418  2.74
   4221.36    8.410  2.74
   4224.10    8.421  2.74
   4226.84    8.445  2.74
   4229.58    8.432  2.74
   4232.32    8.407  2.74
   4235.06    8.413  2.74
   4237.80    8.412  2.74
   4240.54    8.403  2.74
   4243.28    8.394  2.74
   4246.02    8.397  2.74
   4248.76    8.414  2.74
   4251.50    8.417  2.74
   4254.24    8.404  2.74
   4256.98    8.397  2.74
   4259.72    8.391  2.74
   4262.46    8.400  2.74
   4265.20    8.385  2.74
   4267.94    8.386  2.74
   4270.68    8.408  2.74
   4273.42    8.415  2.74
   4276.16    8.399  2.74
   4278.90    8.383  2.74
   4281.64    8.388  2.74
   4284.38    8.393  2.74
   4287.12    8.398  2.74
   4289.86    8.413  2.74
   4292.60    8.419  2.74
   4295.34    8.417  2.74
   4298.08    8.433  2.74
   4300.82    8.467  2.74
   4303.56    8.463  2.74
   4306.30    8.458  2.74
   4309.04    8.474  2.74
   4311.78    8.449  2.74
   4314.52    8.415  2.74
   4317.26    8.387  2.74
   4320.00    8.378  2.74
   4322.74    8.386  2.74
   4325.48    8.409  2.74
   4328.22    8.404  2.74
   4330.96    8.388  2.74
   4333.70    8.423  2.74
   4336.44    8.499  2.74
   4339.18    8.639  2.74
   4341.92    8.710  2.74
   4344.66    8.542  2.74
   4347.40    8.436  2.74
   4350.14    8.401  2.74
   4352.88    8.387  2.74
   4355.62    8.368  2.74
   4358.36    8.352  2.74
   4361.10    8.343  2.74
   4363.84    8.336  2.74
   4366.58    8.340  2.74
   4369.32    8.337  2.74
   4372.06    8.340  2.74
   4374.80    8.351  2.74
   4377.54    8.342  2.74
   4380.28    8.336  2.74
   4383.02    8.344  2.74
   4385.76    8.356  2.74
   4388.50    8.330  2.74
   4391.24    8.323  2.74
   4393.98    8.325  2.74
   4396.72    8.328  2.74
   4399.46    8.326  2.74
   4402.20    8.325  2.74
   4404.94    8.335  2.74
   4407.68    8.328  2.74
   4410.42    8.311  2.74
   4413.16    8.315  2.74
   4415.90    8.314  2.74
   4418.64    8.317  2.74
   4421.38    8.300  2.74
   4424.12    8.306  2.74
   4426.86    8.306  2.74
   4429.60    8.307  2.74
   4432.34    8.306  2.74
   4435.08    8.309  2.74
   4437.82    8.298  2.74
   4440.56    8.294  2.74
   4443.30    8.307  2.74
   4446.04    8.300  2.74
   4448.78    8.297  2.74
   4451.52    8.299  2.74
   4454.26    8.303  2.74
   4457.00    8.305  2.74
   4459.74    8.302  2.74
   4462.48    8.294  2.74
   4465.22    8.289  2.74
   4467.96    8.302  2.74
   4470.70    8.294  2.74
   4473.44    8.288  2.74
   4476.18    8.279  2.74
   4478.92    8.283  2.74
   4481.66    8.293  2.74
   4484.40    8.285  2.74
   4487.14    8.281  2.74
   4489.88    8.279  2.74
   4492.62    8.279  2.74
   4495.36    8.281  2.74
   4498.10    8.276  2.74
   4500.84    8.287  2.74
   4503.58    8.277  2.74
   4506.32    8.274  2.74
   4509.06    8.275  2.74
   4511.80    8.265  2.74
   4514.54    8.275  2.74
   4517.28    8.273  2.74
   4520.02    8.270  2.74
   4522.76    8.279  2.74
   4525.50    8.278  2.74
   4528.24    8.280  2.74
   4530.98    8.287  2.74
   4533.72    8.293  2.74
   4536.46    8.277  2.74
   4539.20    8.270  2.74
   4541.94    8.264  2.74
   4544.68    8.260  2.74
   4547.42    8.275  2.74
   4550.16    8.276  2.74
   4552.90    8.272  2.74
   4555.64    8.267  2.74
   4558.38    8.252  2.74
   4561.12    8.256  2.74
   4563.86    8.258  2.74
   4566.60    8.252  2.74
   4569.34    8.257  2.74
   4572.08    8.261  2.74
   4574.82    8.253  2.74
   4577.56    8.250  2.74
   4580.30    8.247  2.74
   4583.04    8.245  2.74
   4585.78    8.248  2.74
   4588.52    8.240  2.74
   4591.26    8.238  2.74
   4594.00    8.242  2.74
   4596.74    8.235  2.74
   4599.48    8.242  2.74
   4602.22    8.247  2.74
   4604.96    8.238  2.74
   4607.70    8.234  2.74
   4610.44    8.224  2.74
   4613.18    8.231  2.74
   4615.92    8.233  2.74
   4618.66    8.231  2.74
   4621.40    8.223  2.74
   4624.14    8.229  2.74
   4626.88    8.223  2.74
   4629.62    8.227  2.74
   4632.36    8.228  2.74
   4635.10    8.224  2.74
   4637.84    8.219  2.74
   4640.58    8.220  2.74
   4643.32    8.223  2.74
   4646.06    8.220  2.74
   4648.80    8.223  2.74
   4651.54    8.219  2.74
   4654.28    8.221  2.74
   4657.02    8.214  2.74
   4659.76    8.213  2.74
   4662.50    8.213  2.74
   4665.24    8.212  2.74
   4667.98    8.218  2.74
   4670.72    8.212  2.74
   4673.46    8.207  2.74
   4676.20    8.212  2.74
   4678.94    8.213  2.74
   4681.68    8.210  2.74
   4684.42    8.207  2.74
   4687.16    8.205  2.74
   4689.90    8.204  2.74
   4692.64    8.208  2.74
   4695.38    8.207  2.74
   4698.12    8.203  2.74
   4700.86    8.212  2.74
   4703.60    8.219  2.74
   4706.34    8.208  2.74
   4709.08    8.204  2.74
   4711.82    8.204  2.74
   4714.56    8.207  2.74
   4717.30    8.196  2.74
   4720.04    8.198  2.74
   4722.78    8.198  2.74
   4725.52    8.189  2.74
   4728.26    8.197  2.74
   4731.00    8.192  2.74
   4733.74    8.187  2.74
   4736.48    8.193  2.74
   4739.22    8.192  2.74
   4741.96    8.188  2.74
   4744.70    8.181  2.74
   4747.44    8.187  2.74
   4750.18    8.190  2.74
   4752.92    8.190  2.74
   4755.66    8.186  2.74
   4758.40    8.185  2.74
   4761.14    8.191  2.74
   4763.88    8.194  2.74
   4766.62    8.194  2.74
   4769.36    8.186  2.74
   4772.10    8.189  2.74
   4774.84    8.186  2.74
   4777.58    8.187  2.74
   4780.32    8.186  2.74
   4783.06    8.184  2.74
   4785.80    8.188  2.74
   4788.54    8.185  2.74
   4791.28    8.179  2.74
   4794.02    8.183  2.74
   4796.76    8.177  2.74
   4799.50    8.181  2.74
   4802.24    8.180  2.74
   4804.98    8.175  2.74
   4807.72    8.177  2.74
   4810.46    8.181  2.74
   4813.20    8.180  2.74
   4815.94    8.174  2.74
   4818.68    8.171  2.74
   4821.42    8.172  2.74
   4824.16    8.172  2.74
   4826.90    8.170  2.74
   4829.64    8.175  2.74
   4832.38    8.171  2.74
   4835.12    8.178  2.74
   4837.86    8.176  2.74
   4840.60    8.177  2.74
   4843.34    8.191  2.74
   4846.08    8.193  2.74
   4848.82    8.195  2.74
   4851.56    8.213  2.74
   4854.30    8.252  2.74
   4857.04    8.324  2.74
   4859.78    8.471  2.74
   4862.52    8.479  2.74
   4865.26    8.345  2.74
   4868.00    8.257  2.74
   4870.74    8.230  2.74
   4873.48    8.206  2.74
   4876.22    8.187  2.74
   4878.96    8.178  2.74
   4881.70    8.170  2.74
   4884.44    8.166  2.74
   4887.18    8.168  2.74
   4889.92    8.175  2.74
   4892.66    8.148  2.74
   4895.40    8.149  2.74
   4898.14    8.155  2.74
   4900.88    8.155  2.74
   4903.62    8.151  2.74
   4906.36    8.144  2.74
   4909.10    8.145  2.74
   4911.84    8.145  2.74
   4914.58    8.148  2.74
   4917.32    8.157  2.74
   4920.06    8.164  2.74
   4922.80    8.162  2.74
   4925.54    8.153  2.74
   4928.28    8.143  2.74
   4931.02    8.139  2.74
   4933.76    8.148  2.74
   4936.50    8.146  2.74
   4939.24    8.144  2.74
   4941.98    8.135  2.74
   4944.72    8.132  2.74
   4947.46    8.127  2.74
   4950.20    8.131  2.74
   4952.94    8.133  2.74
   4955.68    8.143  2.74
   4958.42    8.154  2.74
   4961.16    8.143  2.74
   4963.90    8.131  2.74
   4966.64    8.134  2.74
   4969.38    8.135  2.74
   4972.12    8.143  2.74
   4974.86    8.132  2.74
   4977.60    8.131  2.74
   4980.34    8.138  2.74
   4983.08    8.141  2.74
   4985.82    8.135  2.74
   4988.56    8.132  2.74
   4991.30    8.126  2.74
   4994.04    8.131  2.74
   4996.78    8.130  2.74
   4999.52    8.131  2.74
   5002.26    8.133  2.74
   5005.00    8.136  2.74
   5007.74    8.143  2.74
   5010.48    8.133  2.74
   5013.22    8.135  2.74
   5015.96    8.146  2.74
   5018.70    8.126  2.74
   5021.44    8.122  2.74
   5024.18    8.128  2.74
   5026.92    8.123  2.74
   5029.66    8.120  2.74
   5032.40    8.122  2.74
