#HD26169                                                     
#                                                            
#  BESSELL 2008 from Heap-Lindler STIS standards             
# wavelength  ABmag  band
   3200.00   11.167  2.00
   3202.00   11.156  2.00
   3204.00   11.125  2.00
   3206.00   11.091  2.00
   3208.00   11.086  2.00
   3210.00   11.137  2.00
   3212.00   11.174  2.00
   3214.00   11.179  2.00
   3216.00   11.140  2.00
   3218.00   11.112  2.00
   3220.00   11.109  2.00
   3222.00   11.123  2.00
   3224.00   11.131  2.00
   3226.00   11.149  2.00
   3228.00   11.165  2.00
   3230.00   11.167  2.00
   3232.00   11.162  2.00
   3234.00   11.154  2.00
   3236.00   11.127  2.00
   3238.00   11.098  2.00
   3240.00   11.083  2.00
   3242.00   11.063  2.00
   3244.00   11.033  2.00
   3246.00   11.025  2.00
   3248.00   11.047  2.00
   3250.00   11.070  2.00
   3252.00   11.059  2.00
   3254.00   11.032  2.00
   3256.00   10.980  2.00
   3258.00   10.925  2.00
   3260.00   10.884  2.00
   3262.00   10.882  2.00
   3264.00   10.895  2.00
   3266.00   10.889  2.00
   3268.00   10.876  2.00
   3270.00   10.878  2.00
   3272.00   10.891  2.00
   3274.00   10.908  2.00
   3276.00   10.925  2.00
   3278.00   10.956  2.00
   3280.00   10.947  2.00
   3282.00   10.912  2.00
   3284.00   10.874  2.00
   3286.00   10.866  2.00
   3288.00   10.841  2.00
   3290.00   10.806  2.00
   3292.00   10.778  2.00
   3294.00   10.775  2.00
   3296.00   10.777  2.00
   3298.00   10.775  2.00
   3300.00   10.771  2.00
   3302.00   10.778  2.00
   3304.00   10.797  2.00
   3306.00   10.813  2.00
   3308.00   10.808  2.00
   3310.00   10.795  2.00
   3312.00   10.787  2.00
   3314.00   10.785  2.00
   3316.00   10.775  2.00
   3318.00   10.768  2.00
   3320.00   10.775  2.00
   3322.00   10.788  2.00
   3324.00   10.787  2.00
   3326.00   10.783  2.00
   3328.00   10.784  2.00
   3330.00   10.787  2.00
   3332.00   10.780  2.00
   3334.00   10.784  2.00
   3336.00   10.802  2.00
   3338.00   10.812  2.00
   3340.00   10.813  2.00
   3342.00   10.797  2.00
   3344.00   10.776  2.00
   3346.00   10.774  2.00
   3348.00   10.799  2.00
   3350.00   10.811  2.00
   3352.00   10.793  2.00
   3354.00   10.754  2.00
   3356.00   10.747  2.00
   3358.00   10.782  2.00
   3360.00   10.841  2.00
   3362.00   10.847  2.00
   3364.00   10.800  2.00
   3366.00   10.772  2.00
   3368.00   10.787  2.00
   3370.00   10.828  2.00
   3372.00   10.834  2.00
   3374.00   10.805  2.00
   3376.00   10.748  2.00
   3378.00   10.731  2.00
   3380.00   10.744  2.00
   3382.00   10.752  2.00
   3384.00   10.725  2.00
   3386.00   10.695  2.00
   3388.00   10.686  2.00
   3390.00   10.694  2.00
   3392.00   10.705  2.00
   3394.00   10.703  2.00
   3396.00   10.678  2.00
   3398.00   10.642  2.00
   3400.00   10.626  2.00
   3402.00   10.640  2.00
   3404.00   10.670  2.00
   3406.00   10.694  2.00
   3408.00   10.702  2.00
   3410.00   10.703  2.00
   3412.00   10.700  2.00
   3414.00   10.696  2.00
   3416.00   10.686  2.00
   3418.00   10.656  2.00
   3420.00   10.629  2.00
   3422.00   10.630  2.00
   3424.00   10.650  2.00
   3426.00   10.653  2.00
   3428.00   10.623  2.00
   3430.00   10.608  2.00
   3432.00   10.595  2.00
   3434.00   10.595  2.00
   3436.00   10.590  2.00
   3438.00   10.612  2.00
   3440.00   10.660  2.00
   3442.00   10.698  2.00
   3444.00   10.700  2.00
   3446.00   10.656  2.00
   3448.00   10.615  2.00
   3450.00   10.595  2.00
   3452.00   10.599  2.00
   3454.00   10.589  2.00
   3456.00   10.575  2.00
   3458.00   10.572  2.00
   3460.00   10.586  2.00
   3462.00   10.595  2.00
   3464.00   10.586  2.00
   3466.00   10.574  2.00
   3468.00   10.564  2.00
   3470.00   10.561  2.00
   3472.00   10.573  2.00
   3474.00   10.612  2.00
   3476.00   10.647  2.00
   3478.00   10.632  2.00
   3480.00   10.584  2.00
   3482.00   10.556  2.00
   3484.00   10.547  2.00
   3486.00   10.539  2.00
   3488.00   10.550  2.00
   3490.00   10.577  2.00
   3492.00   10.594  2.00
   3494.00   10.592  2.00
   3496.00   10.587  2.00
   3498.00   10.573  2.00
   3500.00   10.544  2.00
   3502.00   10.527  2.00
   3504.00   10.528  2.00
   3506.00   10.530  2.00
   3508.00   10.518  2.00
   3510.00   10.525  2.00
   3512.00   10.545  2.00
   3514.00   10.556  2.00
   3516.00   10.534  2.00
   3518.00   10.521  2.00
   3520.00   10.534  2.00
   3522.00   10.558  2.00
   3524.00   10.588  2.00
   3526.00   10.602  2.00
   3528.00   10.584  2.00
   3530.00   10.537  2.00
   3532.00   10.495  2.00
   3534.00   10.475  2.00
   3536.00   10.465  2.00
   3538.00   10.455  2.00
   3540.00   10.445  2.00
   3542.00   10.444  2.00
   3544.00   10.442  2.00
   3546.00   10.436  2.00
   3548.00   10.425  2.00
   3550.00   10.423  2.00
   3552.00   10.428  2.00
   3554.00   10.439  2.00
   3556.00   10.442  2.00
   3558.00   10.436  2.00
   3560.00   10.426  2.00
   3562.00   10.422  2.00
   3564.00   10.439  2.00
   3566.00   10.470  2.00
   3568.00   10.495  2.00
   3570.00   10.510  2.00
   3572.00   10.514  2.00
   3574.00   10.505  2.00
   3576.00   10.475  2.00
   3578.00   10.454  2.00
   3580.00   10.453  2.00
   3582.00   10.470  2.00
   3584.00   10.501  2.00
   3586.00   10.538  2.00
   3588.00   10.548  2.00
   3590.00   10.514  2.00
   3592.00   10.461  2.00
   3594.00   10.428  2.00
   3596.00   10.404  2.00
   3598.00   10.382  2.00
   3600.00   10.372  2.00
   3602.00   10.391  2.00
   3604.00   10.416  2.00
   3606.00   10.429  2.00
   3608.00   10.432  2.00
   3610.00   10.445  2.00
   3612.00   10.446  2.00
   3614.00   10.427  2.00
   3616.00   10.408  2.00
   3618.00   10.415  2.00
   3620.00   10.422  2.00
   3622.00   10.406  2.00
   3624.00   10.370  2.00
   3626.00   10.343  2.00
   3628.00   10.345  2.00
   3630.00   10.379  2.00
   3632.00   10.414  2.00
   3634.00   10.417  2.00
   3636.00   10.389  2.00
   3638.00   10.363  2.00
   3640.00   10.356  2.00
   3642.00   10.364  2.00
   3644.00   10.381  2.00
   3646.00   10.393  2.00
   3648.00   10.393  2.00
   3650.00   10.377  2.00
   3652.00   10.352  2.00
   3654.00   10.321  2.00
   3656.00   10.297  2.00
   3658.00   10.285  2.00
   3660.00   10.285  2.00
   3662.00   10.292  2.00
   3664.00   10.289  2.00
   3666.00   10.284  2.00
   3668.00   10.281  2.00
   3670.00   10.287  2.00
   3672.00   10.290  2.00
   3674.00   10.284  2.00
   3676.00   10.281  2.00
   3678.00   10.285  2.00
   3680.00   10.293  2.00
   3682.00   10.291  2.00
   3684.00   10.298  2.00
   3686.00   10.303  2.00
   3688.00   10.295  2.00
   3690.00   10.264  2.00
   3692.00   10.235  2.00
   3694.00   10.221  2.00
   3696.00   10.221  2.00
   3698.00   10.201  2.00
   3700.00   10.175  2.00
   3702.00   10.176  2.00
   3704.00   10.229  2.00
   3706.00   10.261  2.00
   3708.00   10.246  2.00
   3710.00   10.223  2.00
   3712.00   10.208  2.00
   3714.00   10.165  2.00
   3716.00   10.104  2.00
   3718.00   10.097  2.00
   3720.00   10.165  2.00
   3722.00   10.233  2.00
   3724.00   10.213  2.00
   3726.00   10.136  2.00
   3728.00   10.079  2.00
   3730.00   10.083  2.00
   3732.00   10.144  2.00
   3734.00   10.237  2.00
   3736.00   10.275  2.00
   3738.00   10.210  2.00
   3740.00   10.104  2.00
   3742.00   10.050  2.00
   3744.00   10.064  2.00
   3746.00   10.125  2.00
   3748.00   10.199  2.00
   3750.00   10.230  2.00
   3752.00   10.177  2.00
   3754.00   10.079  2.00
   3756.00   10.024  2.00
   3758.00   10.032  2.00
   3760.00   10.053  2.00
   3762.00   10.044  2.00
   3764.00   10.019  2.00
   3766.00   10.019  2.00
   3768.00   10.060  2.00
   3770.00   10.108  2.00
   3772.00   10.108  2.00
   3774.00   10.069  2.00
   3776.00   10.015  2.00
   3778.00    9.971  2.00
   3780.00    9.928  2.00
   3782.00    9.911  2.00
   3784.00    9.925  2.00
   3786.00    9.948  2.00
   3788.00    9.969  2.00
   3790.00    9.971  2.00
   3792.00    9.978  2.00
   3794.00   10.008  2.00
   3796.00   10.079  2.00
   3798.00   10.140  2.00
   3800.00   10.120  2.00
   3802.00   10.031  2.00
   3804.00    9.955  2.00
   3806.00    9.929  2.00
   3808.00    9.920  2.00
   3810.00    9.907  2.00
   3812.00    9.911  2.00
   3814.00    9.931  2.00
   3816.00    9.945  2.00
   3818.00    9.939  2.00
   3820.00    9.933  2.00
   3822.00    9.939  2.00
   3824.00    9.949  2.00
   3826.00    9.958  2.00
   3828.00    9.962  2.00
   3830.00    9.976  2.00
   3832.00   10.023  2.00
   3834.00   10.099  2.00
   3836.00   10.146  2.00
   3838.00   10.116  2.00
   3840.00   10.039  2.00
   3842.00    9.966  2.00
   3844.00    9.913  2.00
   3846.00    9.876  2.00
   3848.00    9.858  2.00
   3850.00    9.854  2.00
   3852.00    9.850  2.00
   3854.00    9.845  2.00
   3856.00    9.853  2.00
   3858.00    9.871  2.00
   3860.00    9.880  2.00
   3862.00    9.857  2.00
   3864.00    9.830  2.00
   3866.00    9.813  2.00
   3868.00    9.819  2.00
   3870.00    9.847  2.00
   3872.00    9.899  2.00
   3874.00    9.937  2.00
   3876.00    9.941  2.00
   3878.00    9.922  2.00
   3880.00    9.897  2.00
   3882.00    9.873  2.00
   3884.00    9.881  2.00
   3886.00    9.947  2.00
   3888.00   10.031  2.00
   3890.00   10.057  2.00
   3892.00   10.006  2.00
   3894.00    9.949  2.00
   3896.00    9.919  2.00
   3898.00    9.908  2.00
   3900.00    9.895  2.00
   3902.00    9.884  2.00
   3904.00    9.880  2.00
   3906.00    9.873  2.00
   3908.00    9.853  2.00
   3910.00    9.826  2.00
   3912.00    9.811  2.00
   3914.00    9.810  2.00
   3916.00    9.815  2.00
   3918.00    9.827  2.00
   3920.00    9.841  2.00
   3922.00    9.845  2.00
   3924.00    9.838  2.00
   3926.00    9.858  2.00
   3928.00    9.955  2.00
   3930.00   10.175  2.00
   3932.00   10.536  2.00
   3934.00   10.856  2.00
   3936.00   10.740  2.00
   3938.00   10.335  2.00
   3940.00   10.030  2.00
   3942.00    9.891  2.00
   3944.00    9.841  2.00
   3946.00    9.815  2.00
   3948.00    9.792  2.00
   3950.00    9.785  2.00
   3952.00    9.782  2.00
   3954.00    9.778  2.00
   3956.00    9.771  2.00
   3958.00    9.768  2.00
   3960.00    9.780  2.00
   3962.00    9.824  2.00
   3964.00    9.935  2.00
   3966.00   10.172  2.00
   3968.00   10.505  2.00
   3970.00   10.643  2.00
   3972.00   10.388  2.00
   3974.00   10.062  2.00
   3976.00    9.866  2.00
   3978.00    9.777  2.00
   3980.00    9.749  2.00
   3982.00    9.748  2.00
   3984.00    9.744  2.00
   3986.00    9.730  2.00
   3988.00    9.711  2.00
   3990.00    9.698  2.00
   3992.00    9.689  2.00
   3994.00    9.688  2.00
   3996.00    9.700  2.00
   3998.00    9.711  2.00
   4000.00    9.708  2.00
   4002.00    9.693  2.00
   4004.00    9.686  2.00
   4006.00    9.687  2.00
   4008.00    9.683  2.00
   4010.00    9.670  2.00
   4012.00    9.662  2.00
   4014.00    9.664  2.00
   4016.00    9.665  2.00
   4018.00    9.662  2.00
   4020.00    9.657  2.00
   4022.00    9.659  2.00
   4024.00    9.665  2.00
   4026.00    9.665  2.00
   4028.00    9.663  2.00
   4030.00    9.670  2.00
   4032.00    9.686  2.00
   4034.00    9.691  2.00
   4036.00    9.672  2.00
   4038.00    9.642  2.00
   4040.00    9.624  2.00
   4042.00    9.628  2.00
   4044.00    9.647  2.00
   4046.00    9.660  2.00
   4048.00    9.650  2.00
   4050.00    9.627  2.00
   4052.00    9.612  2.00
   4054.00    9.612  2.00
   4056.00    9.617  2.00
   4058.00    9.619  2.00
   4060.00    9.621  2.00
   4062.00    9.630  2.00
   4064.00    9.643  2.00
   4066.00    9.650  2.00
   4068.00    9.643  2.00
   4070.00    9.637  2.00
   4072.00    9.636  2.00
   4074.00    9.642  2.00
   4076.00    9.652  2.00
   4078.00    9.654  2.00
   4080.00    9.641  2.00
   4082.00    9.616  2.00
   4084.00    9.602  2.00
   4086.00    9.595  2.00
   4088.00    9.587  2.00
   4090.00    9.579  2.00
   4092.00    9.578  2.00
   4094.00    9.588  2.00
   4096.00    9.602  2.00
   4098.00    9.635  2.00
   4100.00    9.706  2.00
   4102.00    9.772  2.00
   4104.00    9.762  2.00
   4106.00    9.684  2.00
   4108.00    9.619  2.00
   4110.00    9.593  2.00
   4112.00    9.580  2.00
   4114.00    9.566  2.00
   4116.00    9.562  2.00
   4118.00    9.569  2.00
   4120.00    9.580  2.00
   4122.00    9.582  2.00
   4124.00    9.575  2.00
   4126.00    9.566  2.00
   4128.00    9.563  2.00
   4130.00    9.571  2.00
   4132.00    9.583  2.00
   4134.00    9.586  2.00
   4136.00    9.571  2.00
   4138.00    9.551  2.00
   4140.00    9.544  2.00
   4142.00    9.553  2.00
   4144.00    9.565  2.00
   4146.00    9.565  2.00
   4148.00    9.555  2.00
   4150.00    9.550  2.00
   4152.00    9.554  2.00
   4154.00    9.558  2.00
   4156.00    9.557  2.00
   4158.00    9.549  2.00
   4160.00    9.542  2.00
   4162.00    9.540  2.00
   4164.00    9.536  2.00
   4166.00    9.532  2.00
   4168.00    9.531  2.00
   4170.00    9.539  2.00
   4172.00    9.556  2.00
   4174.00    9.573  2.00
   4176.00    9.579  2.00
   4178.00    9.567  2.00
   4180.00    9.554  2.00
   4182.00    9.546  2.00
   4184.00    9.546  2.00
   4186.00    9.550  2.00
   4188.00    9.551  2.00
   4190.00    9.543  2.00
   4192.00    9.531  2.00
   4194.00    9.520  2.00
   4196.00    9.525  2.00
   4198.00    9.535  2.00
   4200.00    9.548  2.00
   4202.00    9.548  2.00
   4204.00    9.543  2.00
   4206.00    9.536  2.00
   4208.00    9.529  2.00
   4210.00    9.528  2.00
   4212.00    9.527  2.00
   4214.00    9.535  2.00
   4216.00    9.543  2.00
   4218.00    9.540  2.00
   4220.00    9.521  2.00
   4222.00    9.506  2.00
   4224.00    9.524  2.00
   4226.00    9.551  2.00
   4228.00    9.555  2.00
   4230.00    9.529  2.00
   4232.00    9.508  2.00
   4234.00    9.511  2.00
   4236.00    9.523  2.00
   4238.00    9.523  2.00
   4240.00    9.511  2.00
   4242.00    9.506  2.00
   4244.00    9.509  2.00
   4246.00    9.519  2.00
   4248.00    9.536  2.00
   4250.00    9.544  2.00
   4252.00    9.537  2.00
   4254.00    9.524  2.00
   4256.00    9.515  2.00
   4258.00    9.509  2.00
   4260.00    9.506  2.00
   4262.00    9.505  2.00
   4264.00    9.493  2.00
   4266.00    9.482  2.00
   4268.00    9.491  2.00
   4270.00    9.517  2.00
   4272.00    9.538  2.00
   4274.00    9.541  2.00
   4276.00    9.525  2.00
   4278.00    9.511  2.00
   4280.00    9.511  2.00
   4282.00    9.521  2.00
   4284.00    9.530  2.00
   4286.00    9.541  2.00
   4288.00    9.561  2.00
   4290.00    9.580  2.00
   4292.00    9.582  2.00
   4294.00    9.576  2.00
   4296.00    9.588  2.00
   4298.00    9.635  2.00
   4300.00    9.692  2.00
   4302.00    9.725  2.00
   4304.00    9.730  2.00
   4306.00    9.736  2.00
   4308.00    9.758  2.00
   4310.00    9.772  2.00
   4312.00    9.742  2.00
   4314.00    9.656  2.00
   4316.00    9.549  2.00
   4318.00    9.468  2.00
   4320.00    9.443  2.00
   4322.00    9.473  2.00
   4324.00    9.514  2.00
   4326.00    9.523  2.00
   4328.00    9.488  2.00
   4330.00    9.445  2.00
   4332.00    9.426  2.00
   4334.00    9.428  2.00
   4336.00    9.462  2.00
   4338.00    9.540  2.00
   4340.00    9.627  2.00
   4342.00    9.639  2.00
   4344.00    9.563  2.00
   4346.00    9.478  2.00
   4348.00    9.439  2.00
   4350.00    9.440  2.00
   4352.00    9.455  2.00
   4354.00    9.463  2.00
   4356.00    9.454  2.00
   4358.00    9.439  2.00
   4360.00    9.425  2.00
   4362.00    9.413  2.00
   4364.00    9.407  2.00
   4366.00    9.409  2.00
   4368.00    9.412  2.00
   4370.00    9.415  2.00
   4372.00    9.426  2.00
   4374.00    9.440  2.00
   4376.00    9.446  2.00
   4378.00    9.437  2.00
   4380.00    9.427  2.00
   4382.00    9.438  2.00
   4384.00    9.458  2.00
   4386.00    9.459  2.00
   4388.00    9.440  2.00
   4390.00    9.421  2.00
   4392.00    9.418  2.00
   4394.00    9.424  2.00
   4396.00    9.428  2.00
   4398.00    9.427  2.00
   4400.00    9.420  2.00
   4402.00    9.414  2.00
   4404.00    9.407  2.00
   4406.00    9.402  2.00
   4408.00    9.395  2.00
   4410.00    9.384  2.00
   4412.00    9.377  2.00
   4414.00    9.381  2.00
   4416.00    9.392  2.00
   4418.00    9.394  2.00
   4420.00    9.379  2.00
   4422.00    9.361  2.00
   4424.00    9.355  2.00
   4426.00    9.361  2.00
   4428.00    9.362  2.00
   4430.00    9.356  2.00
   4432.00    9.353  2.00
   4434.00    9.355  2.00
   4436.00    9.349  2.00
   4438.00    9.334  2.00
   4440.00    9.331  2.00
   4442.00    9.346  2.00
   4444.00    9.363  2.00
   4446.00    9.357  2.00
   4448.00    9.343  2.00
   4450.00    9.333  2.00
   4452.00    9.333  2.00
   4454.00    9.337  2.00
   4456.00    9.339  2.00
   4458.00    9.337  2.00
   4460.00    9.332  2.00
   4462.00    9.329  2.00
   4464.00    9.323  2.00
   4466.00    9.321  2.00
   4468.00    9.325  2.00
   4470.00    9.326  2.00
   4472.00    9.313  2.00
   4474.00    9.298  2.00
   4476.00    9.291  2.00
   4478.00    9.291  2.00
   4480.00    9.298  2.00
   4482.00    9.305  2.00
   4484.00    9.302  2.00
   4486.00    9.292  2.00
   4488.00    9.288  2.00
   4490.00    9.291  2.00
   4492.00    9.295  2.00
   4494.00    9.300  2.00
   4496.00    9.300  2.00
   4498.00    9.295  2.00
   4500.00    9.291  2.00
   4502.00    9.292  2.00
   4504.00    9.288  2.00
   4506.00    9.279  2.00
   4508.00    9.273  2.00
   4510.00    9.268  2.00
   4512.00    9.265  2.00
   4514.00    9.265  2.00
   4516.00    9.266  2.00
   4518.00    9.269  2.00
   4520.00    9.268  2.00
   4522.00    9.268  2.00
   4524.00    9.269  2.00
   4526.00    9.274  2.00
   4528.00    9.280  2.00
   4530.00    9.288  2.00
   4532.00    9.293  2.00
   4534.00    9.296  2.00
   4536.00    9.289  2.00
   4538.00    9.271  2.00
   4540.00    9.254  2.00
   4542.00    9.249  2.00
   4544.00    9.250  2.00
   4546.00    9.254  2.00
   4548.00    9.265  2.00
   4550.00    9.274  2.00
   4552.00    9.274  2.00
   4554.00    9.267  2.00
   4556.00    9.260  2.00
   4558.00    9.252  2.00
   4560.00    9.242  2.00
   4562.00    9.239  2.00
   4564.00    9.240  2.00
   4566.00    9.238  2.00
   4568.00    9.237  2.00
   4570.00    9.243  2.00
   4572.00    9.250  2.00
   4574.00    9.247  2.00
   4576.00    9.236  2.00
   4578.00    9.228  2.00
   4580.00    9.226  2.00
   4582.00    9.228  2.00
   4584.00    9.233  2.00
   4586.00    9.233  2.00
   4588.00    9.227  2.00
   4590.00    9.221  2.00
   4592.00    9.217  2.00
   4594.00    9.212  2.00
   4596.00    9.205  2.00
   4598.00    9.203  2.00
   4600.00    9.207  2.00
   4602.00    9.212  2.00
   4604.00    9.214  2.00
   4606.00    9.207  2.00
   4608.00    9.199  2.00
   4610.00    9.193  2.00
   4612.00    9.193  2.00
   4614.00    9.196  2.00
   4616.00    9.199  2.00
   4618.00    9.197  2.00
   4620.00    9.192  2.00
   4622.00    9.188  2.00
   4624.00    9.186  2.00
   4626.00    9.190  2.00
   4628.00    9.193  2.00
   4630.00    9.194  2.00
   4632.00    9.190  2.00
   4634.00    9.189  2.00
   4636.00    9.191  2.00
   4638.00    9.193  2.00
   4640.00    9.189  2.00
   4642.00    9.184  2.00
   4644.00    9.184  2.00
   4646.00    9.189  2.00
   4648.00    9.191  2.00
   4650.00    9.189  2.00
   4652.00    9.185  2.00
   4654.00    9.185  2.00
   4656.00    9.184  2.00
   4658.00    9.179  2.00
   4660.00    9.170  2.00
   4662.00    9.163  2.00
   4664.00    9.159  2.00
   4666.00    9.163  2.00
   4668.00    9.168  2.00
   4670.00    9.170  2.00
   4672.00    9.166  2.00
   4674.00    9.161  2.00
   4676.00    9.159  2.00
   4678.00    9.158  2.00
   4680.00    9.158  2.00
   4682.00    9.156  2.00
   4684.00    9.152  2.00
   4686.00    9.148  2.00
   4688.00    9.148  2.00
   4690.00    9.150  2.00
   4692.00    9.150  2.00
   4694.00    9.150  2.00
   4696.00    9.150  2.00
   4698.00    9.153  2.00
   4700.00    9.159  2.00
   4702.00    9.164  2.00
   4704.00    9.164  2.00
   4706.00    9.159  2.00
   4708.00    9.151  2.00
   4710.00    9.146  2.00
   4712.00    9.142  2.00
   4714.00    9.137  2.00
   4716.00    9.135  2.00
   4718.00    9.133  2.00
   4720.00    9.131  2.00
