#HD009051                                                    
#                                                            
#  Heap-Lindler STIS                                         
# wavelength  ABmag  band
   2950.00   12.308  2.74
   2952.74   12.211  2.74
   2955.48   12.151  2.74
   2958.22   12.101  2.74
   2960.96   12.109  2.74
   2963.70   12.143  2.74
   2966.44   12.433  2.74
   2969.18   12.340  2.74
   2971.92   12.244  2.74
   2974.66   12.081  2.74
   2977.40   11.989  2.74
   2980.14   12.165  2.74
   2982.88   12.316  2.74
   2985.62   12.368  2.74
   2988.36   12.124  2.74
   2991.10   11.946  2.74
   2993.84   12.031  2.74
   2996.58   11.991  2.74
   2999.32   12.103  2.74
   3002.06   12.248  2.74
   3004.80   12.073  2.74
   3007.54   12.061  2.74
   3010.28   11.941  2.74
   3013.02   11.952  2.74
   3015.76   11.999  2.74
   3018.50   12.148  2.74
   3021.24   12.322  2.74
   3023.98   12.005  2.74
   3026.72   11.930  2.74
   3029.46   11.899  2.74
   3032.20   11.895  2.74
   3034.94   11.803  2.74
   3037.68   11.901  2.74
   3040.42   11.914  2.74
   3043.16   11.908  2.74
   3045.90   11.838  2.74
   3048.64   11.871  2.74
   3051.38   11.774  2.74
   3054.12   11.850  2.74
   3056.86   11.988  2.74
   3059.60   12.107  2.74
   3062.34   12.017  2.74
   3065.08   12.156  2.74
   3067.82   12.178  2.74
   3070.56   12.082  2.74
   3073.30   11.975  2.74
   3076.04   11.911  2.74
   3078.78   11.912  2.74
   3081.52   11.921  2.74
   3084.26   11.885  2.74
   3087.00   11.960  2.74
   3089.74   12.052  2.74
   3092.48   12.196  2.74
   3095.22   12.088  2.74
   3097.96   12.080  2.74
   3100.70   12.133  2.74
   3103.44   11.955  2.74
   3106.18   11.827  2.74
   3108.92   11.745  2.74
   3111.66   11.742  2.74
   3114.40   11.752  2.74
   3117.14   11.815  2.74
   3119.88   11.931  2.74
   3122.62   11.999  2.74
   3125.36   11.974  2.74
   3128.10   11.943  2.74
   3130.84   11.928  2.74
   3133.58   11.882  2.74
   3136.32   11.858  2.74
   3139.06   11.774  2.74
   3141.80   11.811  2.74
   3144.54   12.015  2.74
   3147.28   12.005  2.74
   3150.02   11.842  2.74
   3152.76   11.801  2.74
   3155.50   11.878  2.74
   3158.24   12.046  2.74
   3160.98   12.148  2.74
   3163.72   11.932  2.74
   3166.46   11.843  2.74
   3169.20   11.771  2.74
   3171.94   11.629  2.74
   3174.68   11.584  2.74
   3177.42   11.580  2.74
   3180.16   11.764  2.74
   3182.90   11.884  2.74
   3185.64   11.895  2.74
   3188.38   11.749  2.74
   3191.12   11.762  2.74
   3193.86   11.842  2.74
   3196.60   11.708  2.74
   3199.34   11.580  2.74
   3202.08   11.542  2.74
   3204.82   11.502  2.74
   3207.56   11.493  2.74
   3210.30   11.615  2.74
   3213.04   11.722  2.74
   3215.78   11.691  2.74
   3218.52   11.589  2.74
   3221.26   11.534  2.74
   3224.00   11.582  2.74
   3226.74   11.640  2.74
   3229.48   11.699  2.74
   3232.22   11.655  2.74
   3234.96   11.650  2.74
   3237.70   11.666  2.74
   3240.44   11.566  2.74
   3243.18   11.471  2.74
   3245.92   11.412  2.74
   3248.66   11.445  2.74
   3251.40   11.452  2.74
   3254.14   11.405  2.74
   3256.88   11.316  2.74
   3259.62   11.235  2.74
   3262.36   11.243  2.74
   3265.10   11.277  2.74
   3267.84   11.268  2.74
   3270.58   11.253  2.74
   3273.32   11.257  2.74
   3276.06   11.297  2.74
   3278.80   11.326  2.74
   3281.54   11.313  2.74
   3284.28   11.292  2.74
   3287.02   11.314  2.74
   3289.76   11.280  2.74
   3292.50   11.157  2.74
   3295.24   11.115  2.74
   3297.98   11.168  2.74
   3300.72   11.190  2.74
   3303.46   11.211  2.74
   3306.20   11.277  2.74
   3308.94   11.288  2.74
   3311.68   11.287  2.74
   3314.42   11.302  2.74
   3317.16   11.281  2.74
   3319.90   11.257  2.74
   3322.64   11.310  2.74
   3325.38   11.312  2.74
   3328.12   11.299  2.74
   3330.86   11.301  2.74
   3333.60   11.296  2.74
   3336.34   11.356  2.74
   3339.08   11.373  2.74
   3341.82   11.336  2.74
   3344.56   11.305  2.74
   3347.30   11.320  2.74
   3350.04   11.350  2.74
   3352.78   11.269  2.74
   3355.52   11.222  2.74
   3358.26   11.473  2.74
   3361.00   11.837  2.74
   3363.74   11.630  2.74
   3366.48   11.405  2.74
   3369.22   11.510  2.74
   3371.96   11.653  2.74
   3374.70   11.519  2.74
   3377.44   11.325  2.74
   3380.18   11.353  2.74
   3382.92   11.380  2.74
   3385.66   11.347  2.74
   3388.40   11.332  2.74
   3391.14   11.309  2.74
   3393.88   11.297  2.74
   3396.62   11.186  2.74
   3399.36   11.055  2.74
   3402.10   11.051  2.74
   3404.84   11.126  2.74
   3407.58   11.193  2.74
   3410.32   11.189  2.74
   3413.06   11.172  2.74
   3415.80   11.166  2.74
   3418.54   11.110  2.74
   3421.28   11.081  2.74
   3424.02   11.081  2.74
   3426.76   11.011  2.74
   3429.50   10.963  2.74
   3432.24   10.974  2.74
   3434.98   10.977  2.74
   3437.72   10.993  2.74
   3440.46   11.131  2.74
   3443.20   11.198  2.74
   3445.94   11.091  2.74
   3448.68   10.986  2.74
   3451.42   10.966  2.74
   3454.16   10.980  2.74
   3456.90   10.945  2.74
   3459.64   10.982  2.74
   3462.38   11.017  2.74
   3465.12   10.975  2.74
   3467.86   10.924  2.74
   3470.60   10.881  2.74
   3473.34   10.934  2.74
   3476.08   11.051  2.74
   3478.82   11.027  2.74
   3481.56   10.918  2.74
   3484.30   10.896  2.74
   3487.04   10.871  2.74
   3489.78   10.891  2.74
   3492.52   10.958  2.74
   3495.26   10.986  2.74
   3498.00   10.960  2.74
   3500.74   10.881  2.74
   3503.48   10.828  2.74
   3506.22   10.846  2.74
   3508.96   10.867  2.74
   3511.70   10.875  2.74
   3514.44   10.888  2.74
   3517.18   10.832  2.74
   3519.92   10.837  2.74
   3522.66   10.941  2.74
   3525.40   10.992  2.74
   3528.14   10.934  2.74
   3530.88   10.862  2.74
   3533.62   10.824  2.74
   3536.36   10.783  2.74
   3539.10   10.735  2.74
   3541.84   10.725  2.74
   3544.58   10.734  2.74
   3547.32   10.742  2.74
   3550.06   10.748  2.74
   3552.80   10.763  2.74
   3555.54   10.780  2.74
   3558.28   10.774  2.74
   3561.02   10.779  2.74
   3563.76   10.801  2.74
   3566.50   10.868  2.74
   3569.24   10.935  2.74
   3571.98   10.914  2.74
   3574.72   10.873  2.74
   3577.46   10.851  2.74
   3580.20   10.894  2.74
   3582.94   10.972  2.74
   3585.68   11.042  2.74
   3588.42   11.053  2.74
   3591.16   10.899  2.74
   3593.90   10.764  2.74
   3596.64   10.702  2.74
   3599.38   10.661  2.74
   3602.12   10.699  2.74
   3604.86   10.762  2.74
   3607.60   10.761  2.74
   3610.34   10.790  2.74
   3613.08   10.801  2.74
   3615.82   10.753  2.74
   3618.56   10.772  2.74
   3621.30   10.784  2.74
   3624.04   10.694  2.74
   3626.78   10.646  2.74
   3629.52   10.653  2.74
   3632.26   10.753  2.74
   3635.00   10.809  2.74
   3637.74   10.728  2.74
   3640.48   10.660  2.74
   3643.22   10.683  2.74
   3645.96   10.739  2.74
   3648.70   10.757  2.74
   3651.44   10.711  2.74
   3654.18   10.629  2.74
   3656.92   10.580  2.74
   3659.66   10.571  2.74
   3662.40   10.575  2.74
   3665.14   10.583  2.74
   3667.88   10.586  2.74
   3670.62   10.601  2.74
   3673.36   10.584  2.74
   3676.10   10.564  2.74
   3678.84   10.611  2.74
   3681.58   10.639  2.74
   3684.32   10.607  2.74
   3687.06   10.620  2.74
   3689.80   10.608  2.74
   3692.54   10.530  2.74
   3695.28   10.496  2.74
   3698.02   10.486  2.74
   3700.76   10.453  2.74
   3703.50   10.494  2.74
   3706.24   10.618  2.74
   3708.98   10.624  2.74
   3711.72   10.555  2.74
   3714.46   10.444  2.74
   3717.20   10.414  2.74
   3719.94   10.552  2.74
   3722.68   10.652  2.74
   3725.42   10.523  2.74
   3728.16   10.441  2.74
   3730.90   10.502  2.74
   3733.64   10.627  2.74
   3736.38   10.720  2.74
   3739.12   10.591  2.74
   3741.86   10.472  2.74
   3744.60   10.498  2.74
   3747.34   10.625  2.74
   3750.08   10.682  2.74
   3752.82   10.551  2.74
   3755.56   10.389  2.74
   3758.30   10.431  2.74
   3761.04   10.480  2.74
   3763.78   10.406  2.74
   3766.52   10.390  2.74
   3769.26   10.423  2.74
   3772.00   10.406  2.74
   3774.74   10.358  2.74
   3777.48   10.324  2.74
   3780.22   10.271  2.74
   3782.96   10.249  2.74
   3785.70   10.291  2.74
   3788.44   10.372  2.74
   3791.18   10.387  2.74
   3793.92   10.381  2.74
   3796.66   10.454  2.74
   3799.40   10.472  2.74
   3802.14   10.347  2.74
   3804.88   10.274  2.74
   3807.62   10.303  2.74
   3810.36   10.307  2.74
   3813.10   10.318  2.74
   3815.84   10.398  2.74
   3818.58   10.413  2.74
   3821.32   10.442  2.74
   3824.06   10.481  2.74
   3826.80   10.536  2.74
   3829.54   10.532  2.74
   3832.28   10.566  2.74
   3835.02   10.644  2.74
   3837.76   10.631  2.74
   3840.50   10.559  2.74
   3843.24   10.429  2.74
   3845.98   10.353  2.74
   3848.72   10.375  2.74
   3851.46   10.402  2.74
   3854.20   10.395  2.74
   3856.94   10.425  2.74
   3859.68   10.489  2.74
   3862.42   10.458  2.74
   3865.16   10.348  2.74
   3867.90   10.390  2.74
   3870.64   10.517  2.74
   3873.38   10.565  2.74
   3876.12   10.469  2.74
   3878.86   10.476  2.74
   3881.60   10.538  2.74
   3884.34   10.503  2.74
   3887.08   10.436  2.74
   3889.82   10.443  2.74
   3892.56   10.362  2.74
   3895.30   10.302  2.74
   3898.04   10.283  2.74
   3900.78   10.266  2.74
   3903.52   10.281  2.74
   3906.26   10.286  2.74
   3909.00   10.268  2.74
   3911.74   10.210  2.74
   3914.48   10.206  2.74
   3917.22   10.255  2.74
   3919.96   10.311  2.74
   3922.70   10.375  2.74
   3925.44   10.427  2.74
   3928.18   10.679  2.74
   3930.92   11.205  2.74
   3933.66   11.729  2.74
   3936.40   11.528  2.74
   3939.14   10.909  2.74
   3941.88   10.539  2.74
   3944.62   10.391  2.74
   3947.36   10.285  2.74
   3950.10   10.238  2.74
   3952.84   10.211  2.74
   3955.58   10.189  2.74
   3958.32   10.201  2.74
   3961.06   10.275  2.74
   3963.80   10.552  2.74
   3966.54   11.017  2.74
   3969.28   11.447  2.74
   3972.02   11.024  2.74
   3974.76   10.486  2.74
   3977.50   10.246  2.74
   3980.24   10.203  2.74
   3982.98   10.070  2.74
   3985.72   10.057  2.74
   3988.46   10.003  2.74
   3991.20    9.992  2.74
   3993.94    9.985  2.74
   3996.68   10.016  2.74
   3999.42   10.017  2.74
   4002.16    9.961  2.74
   4004.90    9.968  2.74
   4007.64    9.999  2.74
   4010.38    9.942  2.74
   4013.12    9.921  2.74
   4015.86    9.922  2.74
   4018.60    9.920  2.74
   4021.34    9.914  2.74
   4024.08    9.916  2.74
   4026.82    9.907  2.74
   4029.56    9.914  2.74
   4032.30    9.971  2.74
   4035.04    9.952  2.74
   4037.78    9.890  2.74
   4040.52    9.870  2.74
   4043.26    9.916  2.74
   4046.00    9.957  2.74
   4048.74    9.913  2.74
   4051.48    9.875  2.74
   4054.22    9.875  2.74
   4056.96    9.892  2.74
   4059.70    9.880  2.74
   4062.44    9.880  2.74
   4065.18    9.922  2.74
   4067.92    9.891  2.74
   4070.66    9.863  2.74
   4073.40    9.888  2.74
   4076.14    9.907  2.74
   4078.88    9.943  2.74
   4081.62    9.865  2.74
   4084.36    9.857  2.74
   4087.10    9.843  2.74
   4089.84    9.785  2.74
   4092.58    9.795  2.74
   4095.32    9.818  2.74
   4098.06    9.867  2.74
   4100.80    9.953  2.74
   4103.54    9.995  2.74
   4106.28    9.873  2.74
   4109.02    9.843  2.74
   4111.76    9.827  2.74
   4114.50    9.800  2.74
   4117.24    9.788  2.74
   4119.98    9.824  2.74
   4122.72    9.828  2.74
   4125.46    9.822  2.74
   4128.20    9.821  2.74
   4130.94    9.835  2.74
   4133.68    9.851  2.74
   4136.42    9.820  2.74
   4139.16    9.770  2.74
   4141.90    9.794  2.74
   4144.64    9.839  2.74
   4147.38    9.806  2.74
   4150.12    9.812  2.74
   4152.86    9.823  2.74
   4155.60    9.838  2.74
   4158.34    9.806  2.74
   4161.08    9.765  2.74
   4163.82    9.755  2.74
   4166.56    9.756  2.74
   4169.30    9.777  2.74
   4172.04    9.829  2.74
   4174.78    9.863  2.74
   4177.52    9.831  2.74
   4180.26    9.804  2.74
   4183.00    9.790  2.74
   4185.74    9.802  2.74
   4188.48    9.800  2.74
   4191.22    9.787  2.74
   4193.96    9.781  2.74
   4196.70    9.811  2.74
   4199.44    9.824  2.74
   4202.18    9.819  2.74
   4204.92    9.803  2.74
   4207.66    9.779  2.74
   4210.40    9.749  2.74
   4213.14    9.769  2.74
   4215.88    9.800  2.74
   4218.62    9.781  2.74
   4221.36    9.745  2.74
   4224.10    9.813  2.74
   4226.84    9.878  2.74
   4229.58    9.802  2.74
   4232.32    9.761  2.74
   4235.06    9.776  2.74
   4237.80    9.806  2.74
   4240.54    9.779  2.74
   4243.28    9.758  2.74
   4246.02    9.768  2.74
   4248.76    9.811  2.74
   4251.50    9.802  2.74
   4254.24    9.758  2.74
   4256.98    9.771  2.74
   4259.72    9.788  2.74
   4262.46    9.780  2.74
   4265.20    9.732  2.74
   4267.94    9.755  2.74
   4270.68    9.813  2.74
   4273.42    9.848  2.74
   4276.16    9.819  2.74
   4278.90    9.770  2.74
   4281.64    9.819  2.74
   4284.38    9.800  2.74
   4287.12    9.869  2.74
   4289.86    9.886  2.74
   4292.60    9.835  2.74
   4295.34    9.881  2.74
   4298.08   10.012  2.74
   4300.82   10.131  2.74
   4303.56   10.161  2.74
   4306.30   10.155  2.74
   4309.04   10.200  2.74
   4311.78   10.143  2.74
   4314.52    9.899  2.74
   4317.26    9.681  2.74
   4320.00    9.650  2.74
   4322.74    9.749  2.74
   4325.48    9.824  2.74
   4328.22    9.704  2.74
   4330.96    9.645  2.74
   4333.70    9.642  2.74
   4336.44    9.692  2.74
   4339.18    9.825  2.74
   4341.92    9.841  2.74
   4344.66    9.687  2.74
   4347.40    9.642  2.74
   4350.14    9.653  2.74
   4352.88    9.723  2.74
   4355.62    9.688  2.74
   4358.36    9.664  2.74
   4361.10    9.651  2.74
   4363.84    9.629  2.74
   4366.58    9.624  2.74
   4369.32    9.657  2.74
   4372.06    9.684  2.74
   4374.80    9.713  2.74
   4377.54    9.688  2.74
   4380.28    9.645  2.74
   4383.02    9.710  2.74
   4385.76    9.730  2.74
   4388.50    9.676  2.74
   4391.24    9.674  2.74
   4393.98    9.653  2.74
   4396.72    9.644  2.74
   4399.46    9.635  2.74
   4402.20    9.623  2.74
   4404.94    9.622  2.74
   4407.68    9.613  2.74
   4410.42    9.584  2.74
   4413.16    9.540  2.74
   4415.90    9.583  2.74
   4418.64    9.556  2.74
   4421.38    9.533  2.74
   4424.12    9.528  2.74
   4426.86    9.525  2.74
   4429.60    9.526  2.74
   4432.34    9.523  2.74
   4435.08    9.536  2.74
   4437.82    9.505  2.74
   4440.56    9.503  2.74
   4443.30    9.560  2.74
   4446.04    9.529  2.74
   4448.78    9.514  2.74
   4451.52    9.509  2.74
   4454.26    9.530  2.74
   4457.00    9.542  2.74
   4459.74    9.522  2.74
   4462.48    9.519  2.74
   4465.22    9.507  2.74
   4467.96    9.513  2.74
   4470.70    9.507  2.74
   4473.44    9.452  2.74
   4476.18    9.460  2.74
   4478.92    9.453  2.74
   4481.66    9.478  2.74
   4484.40    9.459  2.74
   4487.14    9.444  2.74
   4489.88    9.464  2.74
   4492.62    9.456  2.74
   4495.36    9.464  2.74
   4498.10    9.460  2.74
   4500.84    9.436  2.74
   4503.58    9.420  2.74
   4506.32    9.410  2.74
   4509.06    9.401  2.74
   4511.80    9.425  2.74
   4514.54    9.436  2.74
   4517.28    9.446  2.74
   4520.02    9.435  2.74
   4522.76    9.455  2.74
   4525.50    9.462  2.74
   4528.24    9.483  2.74
   4530.98    9.487  2.74
   4533.72    9.488  2.74
   4536.46    9.436  2.74
   4539.20    9.412  2.74
   4541.94    9.415  2.74
   4544.68    9.427  2.74
   4547.42    9.444  2.74
   4550.16    9.477  2.74
   4552.90    9.460  2.74
   4555.64    9.441  2.74
   4558.38    9.404  2.74
   4561.12    9.390  2.74
   4563.86    9.398  2.74
   4566.60    9.389  2.74
   4569.34    9.386  2.74
   4572.08    9.404  2.74
   4574.82    9.377  2.74
   4577.56    9.390  2.74
   4580.30    9.400  2.74
   4583.04    9.408  2.74
   4585.78    9.392  2.74
   4588.52    9.382  2.74
   4591.26    9.385  2.74
   4594.00    9.371  2.74
   4596.74    9.374  2.74
   4599.48    9.377  2.74
   4602.22    9.377  2.74
   4604.96    9.359  2.74
   4607.70    9.346  2.74
   4610.44    9.340  2.74
   4613.18    9.353  2.74
   4615.92    9.354  2.74
   4618.66    9.346  2.74
   4621.40    9.332  2.74
   4624.14    9.327  2.74
   4626.88    9.343  2.74
   4629.62    9.345  2.74
   4632.36    9.330  2.74
   4635.10    9.335  2.74
   4637.84    9.342  2.74
   4640.58    9.324  2.74
   4643.32    9.322  2.74
   4646.06    9.342  2.74
   4648.80    9.337  2.74
   4651.54    9.337  2.74
   4654.28    9.350  2.74
   4657.02    9.337  2.74
   4659.76    9.304  2.74
   4662.50    9.305  2.74
   4665.24    9.325  2.74
   4667.98    9.352  2.74
   4670.72    9.328  2.74
   4673.46    9.313  2.74
   4676.20    9.299  2.74
   4678.94    9.318  2.74
   4681.68    9.321  2.74
   4684.42    9.299  2.74
   4687.16    9.287  2.74
   4689.90    9.296  2.74
   4692.64    9.290  2.74
   4695.38    9.281  2.74
   4698.12    9.288  2.74
   4700.86    9.300  2.74
   4703.60    9.314  2.74
   4706.34    9.320  2.74
   4709.08    9.316  2.74
   4711.82    9.293  2.74
   4714.56    9.289  2.74
   4717.30    9.279  2.74
   4720.04    9.265  2.74
   4722.78    9.269  2.74
   4725.52    9.268  2.74
   4728.26    9.279  2.74
   4731.00    9.274  2.74
   4733.74    9.277  2.74
   4736.48    9.272  2.74
   4739.22    9.263  2.74
   4741.96    9.256  2.74
   4744.70    9.251  2.74
   4747.44    9.252  2.74
   4750.18    9.247  2.74
   4752.92    9.256  2.74
   4755.66    9.261  2.74
   4758.40    9.265  2.74
   4761.14    9.270  2.74
   4763.88    9.283  2.74
   4766.62    9.261  2.74
   4769.36    9.247  2.74
   4772.10    9.246  2.74
   4774.84    9.238  2.74
   4777.58    9.240  2.74
   4780.32    9.245  2.74
   4783.06    9.252  2.74
   4785.80    9.259  2.74
   4788.54    9.255  2.74
   4791.28    9.235  2.74
   4794.02    9.226  2.74
   4796.76    9.231  2.74
   4799.50    9.238  2.74
   4802.24    9.232  2.74
   4804.98    9.234  2.74
   4807.72    9.232  2.74
   4810.46    9.234  2.74
   4813.20    9.216  2.74
   4815.94    9.209  2.74
   4818.68    9.215  2.74
   4821.42    9.221  2.74
   4824.16    9.234  2.74
   4826.90    9.215  2.74
   4829.64    9.209  2.74
   4832.38    9.210  2.74
   4835.12    9.210  2.74
   4837.86    9.220  2.74
   4840.60    9.235  2.74
   4843.34    9.222  2.74
   4846.08    9.210  2.74
   4848.82    9.221  2.74
   4851.56    9.217  2.74
   4854.30    9.240  2.74
   4857.04    9.276  2.74
   4859.78    9.378  2.74
   4862.52    9.389  2.74
   4865.26    9.286  2.74
   4868.00    9.234  2.74
   4870.74    9.252  2.74
   4873.48    9.240  2.74
   4876.22    9.222  2.74
   4878.96    9.207  2.74
   4881.70    9.208  2.74
   4884.44    9.211  2.74
   4887.18    9.217  2.74
   4889.92    9.205  2.74
   4892.66    9.192  2.74
   4895.40    9.182  2.74
   4898.14    9.179  2.74
   4900.88    9.178  2.74
   4903.62    9.188  2.74
   4906.36    9.180  2.74
   4909.10    9.184  2.74
   4911.84    9.188  2.74
   4914.58    9.180  2.74
   4917.32    9.188  2.74
   4920.06    9.218  2.74
   4922.80    9.219  2.74
   4925.54    9.194  2.74
   4928.28    9.161  2.74
   4931.02    9.163  2.74
   4933.76    9.192  2.74
   4936.50    9.199  2.74
   4939.24    9.189  2.74
   4941.98    9.164  2.74
   4944.72    9.148  2.74
   4947.46    9.151  2.74
   4950.20    9.145  2.74
   4952.94    9.146  2.74
   4955.68    9.168  2.74
   4958.42    9.180  2.74
   4961.16    9.150  2.74
   4963.90    9.139  2.74
   4966.64    9.150  2.74
   4969.38    9.170  2.74
   4972.12    9.146  2.74
   4974.86    9.136  2.74
   4977.60    9.150  2.74
   4980.34    9.175  2.74
   4983.08    9.199  2.74
   4985.82    9.183  2.74
   4988.56    9.152  2.74
   4991.30    9.155  2.74
   4994.04    9.158  2.74
   4996.78    9.149  2.74
   4999.52    9.149  2.74
   5002.26    9.159  2.74
   5005.00    9.169  2.74
   5007.74    9.167  2.74
   5010.48    9.163  2.74
   5013.22    9.194  2.74
   5015.96    9.174  2.74
   5018.70    9.165  2.74
   5021.44    9.166  2.74
   5024.18    9.142  2.74
   5026.92    9.132  2.74
   5029.66    9.132  2.74
   5032.40    9.121  2.74
